*RAS_DATA_START
*RAS_HEADER_START
*DISP_FMT_X "%.2f"
*DISP_FMT_Y "%.0f"
*DISP_FULLSCALE "34120.0000000000"
*DISP_LINE_COLOR "255.0000000000"
*DISP_LINE_STYLE "0.0000000000"
*DISP_LINE_WIDTH "0.2500000000"
*DISP_NOTE "Collected Data-18"
*DISP_OFFSET_Y "0.0000000000"
*DISP_PEAKSEARCH_UNIT_Y "cps"
*DISP_RANGE_BOTTOM "0.0000000000"
*DISP_RANGE_LEFT "10.0000000000"
*DISP_RANGE_LOGCUTOFF "0.0100000000"
*DISP_RANGE_RIGHT "80.0000000000"
*DISP_RANGE_TOP "34120.0000000000"
*DISP_SCALE_MODE_Y "0.0000000000"
*DISP_TAB_NAME "2-Theta/Omega"
*DISP_TITLE_Y "Intensity"
*DISP_UNIT_Y "cps"
*DISP_WINDOW_NAME "MSG_MACROENGINE"
*FILE_COMMENT " "
*FILE_MD5 ""
*FILE_MEMO " "
*FILE_OPERATOR "dell"
*FILE_PART_ID "MEAS_KHP2_00061"
*FILE_SAMPLE " "
*FILE_TYPE "RAS_RAW"
*FILE_USERGROUP "System Manager"
*FILE_VERSION "1.0000000000"
*HW_ATTACHMENT_ID "ATT0022"
*HW_ATTACHMENT_NAME "RxRy|RxRy"
*HW_COUNTER_ID-0 "CUT0021"
*HW_COUNTER_ID-1 "CUT0020"
*HW_COUNTER_ID-2 ""
*HW_COUNTER_ID-3 "CSL0021"
*HW_COUNTER_ID-4 "CMC0021"
*HW_COUNTER_NAME-0 "SC-70|SC-70"
*HW_COUNTER_NAME-1 "None|None"
*HW_COUNTER_NAME-2 ""
*HW_COUNTER_NAME-3 "BBM|BBM"
*HW_COUNTER_NAME-4 "検出器モノクロメータ|Detector monochromator"
*HW_COUNTER_SELECT_NAME "SC-70|SC-70"
*HW_ECP_HV "671.0000000000"
*HW_ECP_HV_UNIT "V"
*HW_GONIOMETER_ID "GON0024"
*HW_GONIOMETER_NAME "SmartLab(In-plane)|SmartLab(In-plane)"
*HW_GONIOMETER_RADIUS-0 "90.0"
*HW_GONIOMETER_RADIUS-1 "114.0"
*HW_GONIOMETER_RADIUS-2 "190.0"
*HW_GONIOMETER_RADIUS-3 "300.0"
*HW_GONIOMETER_RADIUS-4 "187.0"
*HW_GONIOMETER_RADIUS-5 "300.0"
*HW_GONIOMETER_RADIUS-6 "113.0"
*HW_GONIOMETER_RADIUS-7 "331.0"
*HW_I_OPT_ID-0 "CBO0021"
*HW_I_OPT_ID-1 "ICR0023"
*HW_I_OPT_ID-2 "ISL0021"
*HW_I_OPT_ID-3 "ISO0021"
*HW_I_OPT_ID-4 "IAD0021"
*HW_I_OPT_ID-5 "IPR0001"
*HW_I_OPT_NAME-0 "CBOユニット|CBO unit"
*HW_I_OPT_NAME-1 "標準入射光学ユニット|Standard incident optical unit"
*HW_I_OPT_NAME-2 "標準入射スリットボックス|Standard incident slit box"
*HW_I_OPT_NAME-3 "入射平行スリット|Incident parallel slit"
*HW_I_OPT_NAME-4 "長手制限スリット|Length limiting slit"
*HW_I_OPT_NAME-5 "None|None"
*HW_R_ATTENUATER_AUTOMODE "1"
*HW_R_OPT_ID-0 "RSS0021"
*HW_R_OPT_ID-1 "RCR0022"
*HW_R_OPT_ID-2 "RSO0021"
*HW_R_OPT_ID-3 "RRS0021"
*HW_R_OPT_ID-4 "ATN0021"
*HW_R_OPT_ID-5 "RFL0021"
*HW_R_OPT_ID-6 "RAD0021"
*HW_R_OPT_NAME-0 "標準受光スリットボックス1|Standard receiving slit box # 1"
*HW_R_OPT_NAME-1 "標準受光光学ユニット1|Standard receiving unit # 1"
*HW_R_OPT_NAME-2 "標準受光光学ユニット2|Standard receiving optical unit # 2"
*HW_R_OPT_NAME-3 "標準受光スリットボックス2|Standard receiving slit box # 2"
*HW_R_OPT_NAME-4 "標準アッテネータ|Standard Attenuator"
*HW_R_OPT_NAME-5 "Cu Kβ|Cu K-beta"
*HW_R_OPT_NAME-6 "調整用受光スリット|Alignment receiving slit"
*HW_SAMPLE_HOLDER_ID "SMP0026"
*HW_SAMPLE_HOLDER_NAME "Z-φステージ|Z-Phi Stage"
*HW_XG_CURRENT_MAX "200"
*HW_XG_CURRENT_MIN "10"
*HW_XG_CURRENT_RESOLUTION "2"
*HW_XG_CURRENT_UNIT "mA"
*HW_XG_FOCUS ""
*HW_XG_FOCUS_TYPE "Normal"
*HW_XG_ID ""
*HW_XG_NAME "9kW 開放管(45kV 200mA ID:1700)|9kW Rotating anode(45kV 200mA ID:1700)"
*HW_XG_TARGET_ATOMIC_NUMBER "29.0000000000"
*HW_XG_TARGET_NAME "Cu"
*HW_XG_TYPE "Rota"
*HW_XG_VOLTAGE_MAX "45"
*HW_XG_VOLTAGE_MIN "20"
*HW_XG_VOLTAGE_RESOLUTION "2"
*HW_XG_VOLTAGE_UNIT "kV"
*HW_XG_WATT_MAX "9"
*HW_XG_WATT_UNIT "kW"
*HW_XG_WAVE_LENGTH_ALPHA1 "1.540593"
*HW_XG_WAVE_LENGTH_ALPHA2 "1.544414"
*HW_XG_WAVE_LENGTH_BETA "1.392250"
*MEAS_COND_AXIS_NAME-0 "Theta/2-Theta"
*MEAS_COND_AXIS_NAME-1 "2-Theta"
*MEAS_COND_AXIS_NAME-2 "Omega"
*MEAS_COND_AXIS_NAME-3 "Phi"
*MEAS_COND_AXIS_NAME-4 "Z"
*MEAS_COND_AXIS_NAME-5 "Rx"
*MEAS_COND_AXIS_NAME-6 "Ry"
*MEAS_COND_AXIS_NAME-7 "2-Theta/Omega"
*MEAS_COND_AXIS_NAME-8 "2-ThetaChi"
*MEAS_COND_AXIS_NAME-9 "2-ThetaChi/Phi"
*MEAS_COND_AXIS_NAME-10 "Alpha"
*MEAS_COND_AXIS_NAME-11 "Beta"
*MEAS_COND_AXIS_NAME-12 "Theta_s"
*MEAS_COND_AXIS_NAME-13 "Theta_d"
*MEAS_COND_AXIS_NAME-14 "Ts"
*MEAS_COND_AXIS_NAME-15 "CBO selection slit"
*MEAS_COND_AXIS_NAME-16 "M"
*MEAS_COND_AXIS_NAME-17 "Incident parallel slit"
*MEAS_COND_AXIS_NAME-18 "Incident slit"
*MEAS_COND_AXIS_NAME-19 ""
*MEAS_COND_AXIS_NAME-20 "Zs"
*MEAS_COND_AXIS_NAME-21 "Incident monochromator"
*MEAS_COND_AXIS_NAME-22 "Length limiting slit"
*MEAS_COND_AXIS_NAME-23 "Center slit"
*MEAS_COND_AXIS_NAME-24 "Filter"
*MEAS_COND_AXIS_NAME-25 "Receiving slit # 1"
*MEAS_COND_AXIS_NAME-26 "Receiving slit # 2"
*MEAS_COND_AXIS_NAME-27 "Receiving optical device"
*MEAS_COND_AXIS_NAME-28 "Receiving parallel slit"
*MEAS_COND_AXIS_NAME-29 "Alignment receiving slit"
*MEAS_COND_AXIS_NAME-30 ""
*MEAS_COND_AXIS_NAME-31 ""
*MEAS_COND_AXIS_NAME-32 "Zd"
*MEAS_COND_AXIS_NAME-33 "Attenuator"
*MEAS_COND_AXIS_NAME-34 "Diffracted beam monochromator"
*MEAS_COND_AXIS_NAME-35 "Monochromator slit"
*MEAS_COND_AXIS_NAME-36 "2-ThetaB"
*MEAS_COND_AXIS_NAME-37 "Primary beam"
*MEAS_COND_AXIS_NAME-38 "HV"
*MEAS_COND_AXIS_NAME-39 "PHA"
*MEAS_COND_AXIS_NAME_INTERNAL-0 "TwoThetaTheta"
*MEAS_COND_AXIS_NAME_INTERNAL-1 "TwoTheta"
*MEAS_COND_AXIS_NAME_INTERNAL-2 "Omega"
*MEAS_COND_AXIS_NAME_INTERNAL-3 "Phi"
*MEAS_COND_AXIS_NAME_INTERNAL-4 "Z"
*MEAS_COND_AXIS_NAME_INTERNAL-5 "Rx"
*MEAS_COND_AXIS_NAME_INTERNAL-6 "Ry"
*MEAS_COND_AXIS_NAME_INTERNAL-7 "TwoThetaOmega"
*MEAS_COND_AXIS_NAME_INTERNAL-8 "TwoThetaChi"
*MEAS_COND_AXIS_NAME_INTERNAL-9 "TwoThetaChiPhi"
*MEAS_COND_AXIS_NAME_INTERNAL-10 "Alpha"
*MEAS_COND_AXIS_NAME_INTERNAL-11 "Beta"
*MEAS_COND_AXIS_NAME_INTERNAL-12 "ThetaS"
*MEAS_COND_AXIS_NAME_INTERNAL-13 "ThetaD"
*MEAS_COND_AXIS_NAME_INTERNAL-14 "Ts"
*MEAS_COND_AXIS_NAME_INTERNAL-15 "CBO"
*MEAS_COND_AXIS_NAME_INTERNAL-16 "CBO-M"
*MEAS_COND_AXIS_NAME_INTERNAL-17 "IncidentSollerSlit"
*MEAS_COND_AXIS_NAME_INTERNAL-18 "IncidentSlitBox"
*MEAS_COND_AXIS_NAME_INTERNAL-19 "IncidentSlitBox-_Axis"
*MEAS_COND_AXIS_NAME_INTERNAL-20 "Zs"
*MEAS_COND_AXIS_NAME_INTERNAL-21 "IncidentMonochromator"
*MEAS_COND_AXIS_NAME_INTERNAL-22 "IncidentAxdSlit"
*MEAS_COND_AXIS_NAME_INTERNAL-23 "CenterSlit"
*MEAS_COND_AXIS_NAME_INTERNAL-24 "Filter"
*MEAS_COND_AXIS_NAME_INTERNAL-25 "ReceivingSlitBox1"
*MEAS_COND_AXIS_NAME_INTERNAL-26 "ReceivingSlitBox2"
*MEAS_COND_AXIS_NAME_INTERNAL-27 "ReceivingOptics"
*MEAS_COND_AXIS_NAME_INTERNAL-28 "ReceivingSollerSlit"
*MEAS_COND_AXIS_NAME_INTERNAL-29 "ReceivingAxdSlit"
*MEAS_COND_AXIS_NAME_INTERNAL-30 "ReceivingSlitBox1-_Axis"
*MEAS_COND_AXIS_NAME_INTERNAL-31 "ReceivingSlitBox2-_Axis"
*MEAS_COND_AXIS_NAME_INTERNAL-32 "ReceivingSlitBox2-Zd"
*MEAS_COND_AXIS_NAME_INTERNAL-33 "Attenuator"
*MEAS_COND_AXIS_NAME_INTERNAL-34 "CounterMonochromator"
*MEAS_COND_AXIS_NAME_INTERNAL-35 "CounterSlit"
*MEAS_COND_AXIS_NAME_INTERNAL-36 "TwoThetaB"
*MEAS_COND_AXIS_NAME_INTERNAL-37 "IncidentPrimary"
*MEAS_COND_AXIS_NAME_INTERNAL-38 "HV"
*MEAS_COND_AXIS_NAME_INTERNAL-39 "PHA"
*MEAS_COND_AXIS_NAME_MAGICNO-0 "83951616.0000000000"
*MEAS_COND_AXIS_NAME_MAGICNO-1 "268632064.0000000000"
*MEAS_COND_AXIS_NAME_MAGICNO-2 "268500992.0000000000"
*MEAS_COND_AXIS_NAME_MAGICNO-3 "268500992.0000000000"
*MEAS_COND_AXIS_NAME_MAGICNO-4 "285278208.0000000000"
*MEAS_COND_AXIS_NAME_MAGICNO-5 "285278208.0000000000"
*MEAS_COND_AXIS_NAME_MAGICNO-6 "285278208.0000000000"
*MEAS_COND_AXIS_NAME_MAGICNO-7 "83951616.0000000000"
*MEAS_COND_AXIS_NAME_MAGICNO-8 "268632064.0000000000"
*MEAS_COND_AXIS_NAME_MAGICNO-9 "83951616.0000000000"
*MEAS_COND_AXIS_NAME_MAGICNO-10 "17039360.0000000000"
*MEAS_COND_AXIS_NAME_MAGICNO-11 "17039360.0000000000"
*MEAS_COND_AXIS_NAME_MAGICNO-12 "131072.0000000000"
*MEAS_COND_AXIS_NAME_MAGICNO-13 "131072.0000000000"
*MEAS_COND_AXIS_NAME_MAGICNO-14 "318898176.0000000000"
*MEAS_COND_AXIS_NAME_MAGICNO-15 "20971521.0000000000"
*MEAS_COND_AXIS_NAME_MAGICNO-16 "285343744.0000000000"
*MEAS_COND_AXIS_NAME_MAGICNO-17 "20971521.0000000000"
*MEAS_COND_AXIS_NAME_MAGICNO-18 "22020097.0000000000"
*MEAS_COND_AXIS_NAME_MAGICNO-19 "25165824.0000000000"
*MEAS_COND_AXIS_NAME_MAGICNO-20 "318898176.0000000000"
*MEAS_COND_AXIS_NAME_MAGICNO-21 "1.0000000000"
*MEAS_COND_AXIS_NAME_MAGICNO-22 "20971521.0000000000"
*MEAS_COND_AXIS_NAME_MAGICNO-23 "20971521.0000000000"
*MEAS_COND_AXIS_NAME_MAGICNO-24 "20971521.0000000000"
*MEAS_COND_AXIS_NAME_MAGICNO-25 "23068673.0000000000"
*MEAS_COND_AXIS_NAME_MAGICNO-26 "23068673.0000000000"
*MEAS_COND_AXIS_NAME_MAGICNO-27 "20971521.0000000000"
*MEAS_COND_AXIS_NAME_MAGICNO-28 "20971521.0000000000"
*MEAS_COND_AXIS_NAME_MAGICNO-29 "20971521.0000000000"
*MEAS_COND_AXIS_NAME_MAGICNO-30 "25165824.0000000000"
*MEAS_COND_AXIS_NAME_MAGICNO-31 "25165824.0000000000"
*MEAS_COND_AXIS_NAME_MAGICNO-32 "285343744.0000000000"
*MEAS_COND_AXIS_NAME_MAGICNO-33 "17301505.0000000000"
*MEAS_COND_AXIS_NAME_MAGICNO-34 "20971521.0000000000"
*MEAS_COND_AXIS_NAME_MAGICNO-35 "20971521.0000000000"
*MEAS_COND_AXIS_NAME_MAGICNO-36 "17039360.0000000000"
*MEAS_COND_AXIS_NAME_MAGICNO-37 "20971521.0000000000"
*MEAS_COND_AXIS_NAME_MAGICNO-38 "0.0000000000"
*MEAS_COND_AXIS_NAME_MAGICNO-39 "0.0000000000"
*MEAS_COND_AXIS_OFFSET-0 "-"
*MEAS_COND_AXIS_OFFSET-1 "0.9533000000"
*MEAS_COND_AXIS_OFFSET-2 "1.2852000000"
*MEAS_COND_AXIS_OFFSET-3 "0.0000000000"
*MEAS_COND_AXIS_OFFSET-4 "-"
*MEAS_COND_AXIS_OFFSET-5 "-"
*MEAS_COND_AXIS_OFFSET-6 "-"
*MEAS_COND_AXIS_OFFSET-7 "-"
*MEAS_COND_AXIS_OFFSET-8 "0.0000000000"
*MEAS_COND_AXIS_OFFSET-9 "-"
*MEAS_COND_AXIS_OFFSET-10 "-"
*MEAS_COND_AXIS_OFFSET-11 "-"
*MEAS_COND_AXIS_OFFSET-12 "1.2852000000"
*MEAS_COND_AXIS_OFFSET-13 "-0.3319000000"
*MEAS_COND_AXIS_OFFSET-14 "-"
*MEAS_COND_AXIS_OFFSET-15 "-"
*MEAS_COND_AXIS_OFFSET-16 "-"
*MEAS_COND_AXIS_OFFSET-17 "-"
*MEAS_COND_AXIS_OFFSET-18 "-"
*MEAS_COND_AXIS_OFFSET-19 "-"
*MEAS_COND_AXIS_OFFSET-20 "-"
*MEAS_COND_AXIS_OFFSET-21 "-"
*MEAS_COND_AXIS_OFFSET-22 "-"
*MEAS_COND_AXIS_OFFSET-23 "-"
*MEAS_COND_AXIS_OFFSET-24 "-"
*MEAS_COND_AXIS_OFFSET-25 "-"
*MEAS_COND_AXIS_OFFSET-26 "-"
*MEAS_COND_AXIS_OFFSET-27 "-"
*MEAS_COND_AXIS_OFFSET-28 "-"
*MEAS_COND_AXIS_OFFSET-29 "-"
*MEAS_COND_AXIS_OFFSET-30 "-"
*MEAS_COND_AXIS_OFFSET-31 "-"
*MEAS_COND_AXIS_OFFSET-32 "-"
*MEAS_COND_AXIS_OFFSET-33 "-"
*MEAS_COND_AXIS_OFFSET-34 "-"
*MEAS_COND_AXIS_OFFSET-35 "-"
*MEAS_COND_AXIS_OFFSET-36 "-"
*MEAS_COND_AXIS_OFFSET-37 "-"
*MEAS_COND_AXIS_OFFSET-38 "-"
*MEAS_COND_AXIS_OFFSET-39 "-"
*MEAS_COND_AXIS_POSITION-0 "9.9950000000"
*MEAS_COND_AXIS_POSITION-1 "9.9950000000"
*MEAS_COND_AXIS_POSITION-2 "4.9975000000"
*MEAS_COND_AXIS_POSITION-3 "0.0000000000"
*MEAS_COND_AXIS_POSITION-4 "-0.3815200000"
*MEAS_COND_AXIS_POSITION-5 "0.0000000000"
*MEAS_COND_AXIS_POSITION-6 "0.0000000000"
*MEAS_COND_AXIS_POSITION-7 "9.9950000000"
*MEAS_COND_AXIS_POSITION-8 "0.0000000000"
*MEAS_COND_AXIS_POSITION-9 "0.0000000000"
*MEAS_COND_AXIS_POSITION-10 "90.0000000000"
*MEAS_COND_AXIS_POSITION-11 "0.0000000000"
*MEAS_COND_AXIS_POSITION-12 "4.9975000000"
*MEAS_COND_AXIS_POSITION-13 "4.9975000000"
*MEAS_COND_AXIS_POSITION-14 "-0.4951900000"
*MEAS_COND_AXIS_POSITION-15 "PB"
*MEAS_COND_AXIS_POSITION-16 "0.0000000000"
*MEAS_COND_AXIS_POSITION-17 "Soller_slit_5.0deg"
*MEAS_COND_AXIS_POSITION-18 "1.000mm"
*MEAS_COND_AXIS_POSITION-19 "1.0000000000"
*MEAS_COND_AXIS_POSITION-20 "-1.7246900000"
*MEAS_COND_AXIS_POSITION-21 "0.0000000000"
*MEAS_COND_AXIS_POSITION-22 "10.0mm"
*MEAS_COND_AXIS_POSITION-23 "None"
*MEAS_COND_AXIS_POSITION-24 "None"
*MEAS_COND_AXIS_POSITION-25 "1.000mm"
*MEAS_COND_AXIS_POSITION-26 "1.000mm"
*MEAS_COND_AXIS_POSITION-27 "PSA_open"
*MEAS_COND_AXIS_POSITION-28 "Soller_slit_5.0deg"
*MEAS_COND_AXIS_POSITION-29 "None"
*MEAS_COND_AXIS_POSITION-30 "1.0000000000"
*MEAS_COND_AXIS_POSITION-31 "1.0000000000"
*MEAS_COND_AXIS_POSITION-32 "0.0221900000"
*MEAS_COND_AXIS_POSITION-33 "1/10000"
*MEAS_COND_AXIS_POSITION-34 "None"
*MEAS_COND_AXIS_POSITION-35 "None"
*MEAS_COND_AXIS_POSITION-36 "9.9950000000"
*MEAS_COND_AXIS_POSITION-37 "None"
*MEAS_COND_AXIS_POSITION-38 "671.0000000000"
*MEAS_COND_AXIS_POSITION-39 "560.0000000000"
*MEAS_COND_AXIS_UNIT-0 "deg"
*MEAS_COND_AXIS_UNIT-1 "deg"
*MEAS_COND_AXIS_UNIT-2 "deg"
*MEAS_COND_AXIS_UNIT-3 "deg"
*MEAS_COND_AXIS_UNIT-4 "mm"
*MEAS_COND_AXIS_UNIT-5 "deg"
*MEAS_COND_AXIS_UNIT-6 "deg"
*MEAS_COND_AXIS_UNIT-7 "deg"
*MEAS_COND_AXIS_UNIT-8 "deg"
*MEAS_COND_AXIS_UNIT-9 "deg"
*MEAS_COND_AXIS_UNIT-10 "deg"
*MEAS_COND_AXIS_UNIT-11 "deg"
*MEAS_COND_AXIS_UNIT-12 "deg"
*MEAS_COND_AXIS_UNIT-13 "deg"
*MEAS_COND_AXIS_UNIT-14 "mm"
*MEAS_COND_AXIS_UNIT-15 ""
*MEAS_COND_AXIS_UNIT-16 "pulse"
*MEAS_COND_AXIS_UNIT-17 ""
*MEAS_COND_AXIS_UNIT-18 ""
*MEAS_COND_AXIS_UNIT-19 "mm"
*MEAS_COND_AXIS_UNIT-20 "mm"
*MEAS_COND_AXIS_UNIT-21 ""
*MEAS_COND_AXIS_UNIT-22 ""
*MEAS_COND_AXIS_UNIT-23 ""
*MEAS_COND_AXIS_UNIT-24 ""
*MEAS_COND_AXIS_UNIT-25 ""
*MEAS_COND_AXIS_UNIT-26 ""
*MEAS_COND_AXIS_UNIT-27 ""
*MEAS_COND_AXIS_UNIT-28 ""
*MEAS_COND_AXIS_UNIT-29 ""
*MEAS_COND_AXIS_UNIT-30 "mm"
*MEAS_COND_AXIS_UNIT-31 "mm"
*MEAS_COND_AXIS_UNIT-32 "mm"
*MEAS_COND_AXIS_UNIT-33 ""
*MEAS_COND_AXIS_UNIT-34 ""
*MEAS_COND_AXIS_UNIT-35 ""
*MEAS_COND_AXIS_UNIT-36 "deg"
*MEAS_COND_AXIS_UNIT-37 ""
*MEAS_COND_AXIS_UNIT-38 "V"
*MEAS_COND_AXIS_UNIT-39 "mV"
*MEAS_COND_COUNTER_CNTLOSS_CORR "1.0000000000"
*MEAS_COND_COUNTER_PHABASE "560.0000000000"
*MEAS_COND_COUNTER_PHAWINDOW "878.7500000000"
*MEAS_COND_COUNTER_PHA_UNIT "mV"
*MEAS_COND_COUNTER_TAUDIFF "0.2195060000"
*MEAS_COND_COUNTER_TAUINT "0.8147800000"
*MEAS_COND_IRRADIATION_MODE "OFF"
*MEAS_COND_IRRADIATION_WIDTH ""
*MEAS_COND_OPT_ATTR "Medium resolution parallel beam/RS"
*MEAS_COND_OPT_NAME "@Medium resolution PB"
*MEAS_COND_UNSYMMETRIC_MODE "OFF"
*MEAS_COND_XG_CURRENT "100.0000000000"
*MEAS_COND_XG_VOLTAGE "40.0000000000"
*MEAS_COND_XG_WAVE_TYPE "Ka"
*MEAS_DATA_COUNT "7001.0000000000"
*MEAS_SCAN_AXIS_X "2-Theta/Omega"
*MEAS_SCAN_AXIS_X_INTERNAL "TwoThetaOmega"
*MEAS_SCAN_END_TIME "11/05/25 16:28:56"
*MEAS_SCAN_MODE "CONTINUOUS"
*MEAS_SCAN_MONITOR "0"
*MEAS_SCAN_RESOLUTION_X "0.0002"
*MEAS_SCAN_SPEED "5.000000"
*MEAS_SCAN_SPEED_UNIT "deg/min"
*MEAS_SCAN_SPEED_USER "5.0000"
*MEAS_SCAN_START "10.0000000000"
*MEAS_SCAN_START_TIME "11/05/25 16:14:48"
*MEAS_SCAN_STEP "0.0100000000"
*MEAS_SCAN_STOP "80.0000000000"
*MEAS_SCAN_UNIT_X "deg"
*MEAS_SCAN_UNIT_Y "counts"
*RAS_HEADER_END
*RAS_INT_START
10.0000 40.0000 1.0000
10.0100 33.0000 1.0000
10.0200 35.0000 1.0000
10.0300 39.0000 1.0000
10.0400 30.0000 1.0000
10.0500 43.0000 1.0000
10.0600 44.0000 1.0000
10.0700 33.0000 1.0000
10.0800 46.0000 1.0000
10.0900 46.0000 1.0000
10.1000 44.0000 1.0000
10.1100 33.0000 1.0000
10.1200 33.0000 1.0000
10.1300 39.0000 1.0000
10.1400 32.0000 1.0000
10.1500 48.0000 1.0000
10.1600 29.0000 1.0000
10.1700 39.0000 1.0000
10.1800 32.0000 1.0000
10.1900 38.0000 1.0000
10.2000 43.0000 1.0000
10.2100 37.0000 1.0000
10.2200 35.0000 1.0000
10.2300 48.0000 1.0000
10.2400 48.0000 1.0000
10.2500 36.0000 1.0000
10.2600 34.0000 1.0000
10.2700 37.0000 1.0000
10.2800 36.0000 1.0000
10.2900 33.0000 1.0000
10.3000 39.0000 1.0000
10.3100 32.0000 1.0000
10.3200 40.0000 1.0000
10.3300 24.0000 1.0000
10.3400 37.0000 1.0000
10.3500 42.0000 1.0000
10.3600 40.0000 1.0000
10.3700 37.0000 1.0000
10.3800 39.0000 1.0000
10.3900 36.0000 1.0000
10.4000 35.0000 1.0000
10.4100 38.0000 1.0000
10.4200 51.0000 1.0000
10.4300 40.0000 1.0000
10.4400 39.0000 1.0000
10.4500 39.0000 1.0000
10.4600 32.0000 1.0000
10.4700 38.0000 1.0000
10.4800 44.0000 1.0000
10.4900 38.0000 1.0000
10.5000 34.0000 1.0000
10.5100 36.0000 1.0000
10.5200 29.0000 1.0000
10.5300 40.0000 1.0000
10.5400 31.0000 1.0000
10.5500 29.0000 1.0000
10.5600 40.0000 1.0000
10.5700 50.0000 1.0000
10.5800 36.0000 1.0000
10.5900 44.0000 1.0000
10.6000 39.0000 1.0000
10.6100 46.0000 1.0000
10.6200 25.0000 1.0000
10.6300 22.0000 1.0000
10.6400 37.0000 1.0000
10.6500 35.0000 1.0000
10.6600 47.0000 1.0000
10.6700 43.0000 1.0000
10.6800 40.0000 1.0000
10.6900 35.0000 1.0000
10.7000 40.0000 1.0000
10.7100 46.0000 1.0000
10.7200 45.0000 1.0000
10.7300 35.0000 1.0000
10.7400 39.0000 1.0000
10.7500 45.0000 1.0000
10.7600 39.0000 1.0000
10.7700 38.0000 1.0000
10.7800 35.0000 1.0000
10.7900 28.0000 1.0000
10.8000 51.0000 1.0000
10.8100 37.0000 1.0000
10.8200 41.0000 1.0000
10.8300 31.0000 1.0000
10.8400 35.0000 1.0000
10.8500 35.0000 1.0000
10.8600 43.0000 1.0000
10.8700 33.0000 1.0000
10.8800 35.0000 1.0000
10.8900 45.0000 1.0000
10.9000 35.0000 1.0000
10.9100 31.0000 1.0000
10.9200 32.0000 1.0000
10.9300 45.0000 1.0000
10.9400 38.0000 1.0000
10.9500 34.0000 1.0000
10.9600 48.0000 1.0000
10.9700 28.0000 1.0000
10.9800 35.0000 1.0000
10.9900 42.0000 1.0000
11.0000 36.0000 1.0000
11.0100 35.0000 1.0000
11.0200 33.0000 1.0000
11.0300 35.0000 1.0000
11.0400 36.0000 1.0000
11.0500 26.0000 1.0000
11.0600 40.0000 1.0000
11.0700 30.0000 1.0000
11.0800 36.0000 1.0000
11.0900 44.0000 1.0000
11.1000 31.0000 1.0000
11.1100 29.0000 1.0000
11.1200 34.0000 1.0000
11.1300 31.0000 1.0000
11.1400 42.0000 1.0000
11.1500 30.0000 1.0000
11.1600 46.0000 1.0000
11.1700 47.0000 1.0000
11.1800 35.0000 1.0000
11.1900 38.0000 1.0000
11.2000 33.0000 1.0000
11.2100 26.0000 1.0000
11.2200 42.0000 1.0000
11.2300 43.0000 1.0000
11.2400 35.0000 1.0000
11.2500 28.0000 1.0000
11.2600 35.0000 1.0000
11.2700 39.0000 1.0000
11.2800 41.0000 1.0000
11.2900 33.0000 1.0000
11.3000 38.0000 1.0000
11.3100 43.0000 1.0000
11.3200 33.0000 1.0000
11.3300 39.0000 1.0000
11.3400 45.0000 1.0000
11.3500 30.0000 1.0000
11.3600 38.0000 1.0000
11.3700 32.0000 1.0000
11.3800 45.0000 1.0000
11.3900 27.0000 1.0000
11.4000 34.0000 1.0000
11.4100 33.0000 1.0000
11.4200 35.0000 1.0000
11.4300 44.0000 1.0000
11.4400 35.0000 1.0000
11.4500 38.0000 1.0000
11.4600 25.0000 1.0000
11.4700 36.0000 1.0000
11.4800 35.0000 1.0000
11.4900 34.0000 1.0000
11.5000 28.0000 1.0000
11.5100 31.0000 1.0000
11.5200 17.0000 1.0000
11.5300 35.0000 1.0000
11.5400 34.0000 1.0000
11.5500 43.0000 1.0000
11.5600 34.0000 1.0000
11.5700 30.0000 1.0000
11.5800 27.0000 1.0000
11.5900 29.0000 1.0000
11.6000 35.0000 1.0000
11.6100 29.0000 1.0000
11.6200 33.0000 1.0000
11.6300 35.0000 1.0000
11.6400 35.0000 1.0000
11.6500 28.0000 1.0000
11.6600 41.0000 1.0000
11.6700 38.0000 1.0000
11.6800 22.0000 1.0000
11.6900 38.0000 1.0000
11.7000 43.0000 1.0000
11.7100 33.0000 1.0000
11.7200 26.0000 1.0000
11.7300 34.0000 1.0000
11.7400 35.0000 1.0000
11.7500 38.0000 1.0000
11.7600 30.0000 1.0000
11.7700 25.0000 1.0000
11.7800 32.0000 1.0000
11.7900 27.0000 1.0000
11.8000 37.0000 1.0000
11.8100 31.0000 1.0000
11.8200 35.0000 1.0000
11.8300 30.0000 1.0000
11.8400 33.0000 1.0000
11.8500 38.0000 1.0000
11.8600 33.0000 1.0000
11.8700 29.0000 1.0000
11.8800 38.0000 1.0000
11.8900 41.0000 1.0000
11.9000 30.0000 1.0000
11.9100 44.0000 1.0000
11.9200 35.0000 1.0000
11.9300 39.0000 1.0000
11.9400 28.0000 1.0000
11.9500 25.0000 1.0000
11.9600 35.0000 1.0000
11.9700 36.0000 1.0000
11.9800 34.0000 1.0000
11.9900 25.0000 1.0000
12.0000 29.0000 1.0000
12.0100 32.0000 1.0000
12.0200 27.0000 1.0000
12.0300 38.0000 1.0000
12.0400 35.0000 1.0000
12.0500 33.0000 1.0000
12.0600 32.0000 1.0000
12.0700 26.0000 1.0000
12.0800 27.0000 1.0000
12.0900 34.0000 1.0000
12.1000 24.0000 1.0000
12.1100 22.0000 1.0000
12.1200 32.0000 1.0000
12.1300 33.0000 1.0000
12.1400 42.0000 1.0000
12.1500 34.0000 1.0000
12.1600 27.0000 1.0000
12.1700 31.0000 1.0000
12.1800 24.0000 1.0000
12.1900 33.0000 1.0000
12.2000 31.0000 1.0000
12.2100 36.0000 1.0000
12.2200 37.0000 1.0000
12.2300 30.0000 1.0000
12.2400 33.0000 1.0000
12.2500 33.0000 1.0000
12.2600 39.0000 1.0000
12.2700 32.0000 1.0000
12.2800 36.0000 1.0000
12.2900 34.0000 1.0000
12.3000 22.0000 1.0000
12.3100 23.0000 1.0000
12.3200 41.0000 1.0000
12.3300 32.0000 1.0000
12.3400 38.0000 1.0000
12.3500 34.0000 1.0000
12.3600 26.0000 1.0000
12.3700 24.0000 1.0000
12.3800 38.0000 1.0000
12.3900 32.0000 1.0000
12.4000 23.0000 1.0000
12.4100 31.0000 1.0000
12.4200 44.0000 1.0000
12.4300 23.0000 1.0000
12.4400 30.0000 1.0000
12.4500 24.0000 1.0000
12.4600 26.0000 1.0000
12.4700 36.0000 1.0000
12.4800 37.0000 1.0000
12.4900 29.0000 1.0000
12.5000 37.0000 1.0000
12.5100 29.0000 1.0000
12.5200 42.0000 1.0000
12.5300 34.0000 1.0000
12.5400 30.0000 1.0000
12.5500 31.0000 1.0000
12.5600 40.0000 1.0000
12.5700 27.0000 1.0000
12.5800 34.0000 1.0000
12.5900 39.0000 1.0000
12.6000 25.0000 1.0000
12.6100 35.0000 1.0000
12.6200 45.0000 1.0000
12.6300 34.0000 1.0000
12.6400 34.0000 1.0000
12.6500 20.0000 1.0000
12.6600 31.0000 1.0000
12.6700 25.0000 1.0000
12.6800 26.0000 1.0000
12.6900 29.0000 1.0000
12.7000 30.0000 1.0000
12.7100 39.0000 1.0000
12.7200 23.0000 1.0000
12.7300 22.0000 1.0000
12.7400 22.0000 1.0000
12.7500 29.0000 1.0000
12.7600 23.0000 1.0000
12.7700 25.0000 1.0000
12.7800 32.0000 1.0000
12.7900 37.0000 1.0000
12.8000 19.0000 1.0000
12.8100 29.0000 1.0000
12.8200 28.0000 1.0000
12.8300 35.0000 1.0000
12.8400 23.0000 1.0000
12.8500 29.0000 1.0000
12.8600 22.0000 1.0000
12.8700 30.0000 1.0000
12.8800 37.0000 1.0000
12.8900 35.0000 1.0000
12.9000 21.0000 1.0000
12.9100 31.0000 1.0000
12.9200 32.0000 1.0000
12.9300 28.0000 1.0000
12.9400 28.0000 1.0000
12.9500 32.0000 1.0000
12.9600 26.0000 1.0000
12.9700 21.0000 1.0000
12.9800 18.0000 1.0000
12.9900 39.0000 1.0000
13.0000 33.0000 1.0000
13.0100 26.0000 1.0000
13.0200 23.0000 1.0000
13.0300 23.0000 1.0000
13.0400 30.0000 1.0000
13.0500 30.0000 1.0000
13.0600 29.0000 1.0000
13.0700 24.0000 1.0000
13.0800 42.0000 1.0000
13.0900 31.0000 1.0000
13.1000 30.0000 1.0000
13.1100 23.0000 1.0000
13.1200 24.0000 1.0000
13.1300 31.0000 1.0000
13.1400 34.0000 1.0000
13.1500 22.0000 1.0000
13.1600 27.0000 1.0000
13.1700 27.0000 1.0000
13.1800 33.0000 1.0000
13.1900 34.0000 1.0000
13.2000 26.0000 1.0000
13.2100 27.0000 1.0000
13.2200 18.0000 1.0000
13.2300 24.0000 1.0000
13.2400 38.0000 1.0000
13.2500 25.0000 1.0000
13.2600 26.0000 1.0000
13.2700 28.0000 1.0000
13.2800 36.0000 1.0000
13.2900 27.0000 1.0000
13.3000 34.0000 1.0000
13.3100 33.0000 1.0000
13.3200 26.0000 1.0000
13.3300 28.0000 1.0000
13.3400 37.0000 1.0000
13.3500 20.0000 1.0000
13.3600 29.0000 1.0000
13.3700 25.0000 1.0000
13.3800 29.0000 1.0000
13.3900 29.0000 1.0000
13.4000 21.0000 1.0000
13.4100 29.0000 1.0000
13.4200 32.0000 1.0000
13.4300 32.0000 1.0000
13.4400 26.0000 1.0000
13.4500 32.0000 1.0000
13.4600 27.0000 1.0000
13.4700 25.0000 1.0000
13.4800 27.0000 1.0000
13.4900 35.0000 1.0000
13.5000 28.0000 1.0000
13.5100 30.0000 1.0000
13.5200 30.0000 1.0000
13.5300 28.0000 1.0000
13.5400 24.0000 1.0000
13.5500 39.0000 1.0000
13.5600 25.0000 1.0000
13.5700 26.0000 1.0000
13.5800 22.0000 1.0000
13.5900 36.0000 1.0000
13.6000 27.0000 1.0000
13.6100 22.0000 1.0000
13.6200 22.0000 1.0000
13.6300 28.0000 1.0000
13.6400 31.0000 1.0000
13.6500 40.0000 1.0000
13.6600 21.0000 1.0000
13.6700 29.0000 1.0000
13.6800 19.0000 1.0000
13.6900 29.0000 1.0000
13.7000 27.0000 1.0000
13.7100 31.0000 1.0000
13.7200 32.0000 1.0000
13.7300 32.0000 1.0000
13.7400 33.0000 1.0000
13.7500 24.0000 1.0000
13.7600 38.0000 1.0000
13.7700 29.0000 1.0000
13.7800 16.0000 1.0000
13.7900 28.0000 1.0000
13.8000 34.0000 1.0000
13.8100 23.0000 1.0000
13.8200 27.0000 1.0000
13.8300 28.0000 1.0000
13.8400 26.0000 1.0000
13.8500 38.0000 1.0000
13.8600 32.0000 1.0000
13.8700 32.0000 1.0000
13.8800 25.0000 1.0000
13.8900 29.0000 1.0000
13.9000 24.0000 1.0000
13.9100 30.0000 1.0000
13.9200 25.0000 1.0000
13.9300 25.0000 1.0000
13.9400 25.0000 1.0000
13.9500 30.0000 1.0000
13.9600 30.0000 1.0000
13.9700 29.0000 1.0000
13.9800 24.0000 1.0000
13.9900 31.0000 1.0000
14.0000 32.0000 1.0000
14.0100 32.0000 1.0000
14.0200 30.0000 1.0000
14.0300 26.0000 1.0000
14.0400 29.0000 1.0000
14.0500 15.0000 1.0000
14.0600 27.0000 1.0000
14.0700 29.0000 1.0000
14.0800 38.0000 1.0000
14.0900 21.0000 1.0000
14.1000 32.0000 1.0000
14.1100 19.0000 1.0000
14.1200 21.0000 1.0000
14.1300 29.0000 1.0000
14.1400 35.0000 1.0000
14.1500 34.0000 1.0000
14.1600 26.0000 1.0000
14.1700 29.0000 1.0000
14.1800 31.0000 1.0000
14.1900 24.0000 1.0000
14.2000 33.0000 1.0000
14.2100 29.0000 1.0000
14.2200 24.0000 1.0000
14.2300 25.0000 1.0000
14.2400 20.0000 1.0000
14.2500 23.0000 1.0000
14.2600 32.0000 1.0000
14.2700 34.0000 1.0000
14.2800 30.0000 1.0000
14.2900 29.0000 1.0000
14.3000 37.0000 1.0000
14.3100 21.0000 1.0000
14.3200 31.0000 1.0000
14.3300 28.0000 1.0000
14.3400 20.0000 1.0000
14.3500 24.0000 1.0000
14.3600 27.0000 1.0000
14.3700 20.0000 1.0000
14.3800 33.0000 1.0000
14.3900 28.0000 1.0000
14.4000 30.0000 1.0000
14.4100 29.0000 1.0000
14.4200 24.0000 1.0000
14.4300 29.0000 1.0000
14.4400 24.0000 1.0000
14.4500 30.0000 1.0000
14.4600 24.0000 1.0000
14.4700 30.0000 1.0000
14.4800 24.0000 1.0000
14.4900 18.0000 1.0000
14.5000 20.0000 1.0000
14.5100 17.0000 1.0000
14.5200 25.0000 1.0000
14.5300 21.0000 1.0000
14.5400 25.0000 1.0000
14.5500 36.0000 1.0000
14.5600 19.0000 1.0000
14.5700 25.0000 1.0000
14.5800 29.0000 1.0000
14.5900 19.0000 1.0000
14.6000 27.0000 1.0000
14.6100 26.0000 1.0000
14.6200 33.0000 1.0000
14.6300 21.0000 1.0000
14.6400 27.0000 1.0000
14.6500 28.0000 1.0000
14.6600 27.0000 1.0000
14.6700 31.0000 1.0000
14.6800 24.0000 1.0000
14.6900 26.0000 1.0000
14.7000 35.0000 1.0000
14.7100 16.0000 1.0000
14.7200 27.0000 1.0000
14.7300 24.0000 1.0000
14.7400 27.0000 1.0000
14.7500 33.0000 1.0000
14.7600 23.0000 1.0000
14.7700 26.0000 1.0000
14.7800 31.0000 1.0000
14.7900 31.0000 1.0000
14.8000 18.0000 1.0000
14.8100 22.0000 1.0000
14.8200 18.0000 1.0000
14.8300 25.0000 1.0000
14.8400 26.0000 1.0000
14.8500 27.0000 1.0000
14.8600 33.0000 1.0000
14.8700 27.0000 1.0000
14.8800 32.0000 1.0000
14.8900 21.0000 1.0000
14.9000 24.0000 1.0000
14.9100 16.0000 1.0000
14.9200 23.0000 1.0000
14.9300 33.0000 1.0000
14.9400 31.0000 1.0000
14.9500 19.0000 1.0000
14.9600 26.0000 1.0000
14.9700 21.0000 1.0000
14.9800 20.0000 1.0000
14.9900 19.0000 1.0000
15.0000 20.0000 1.0000
15.0100 23.0000 1.0000
15.0200 28.0000 1.0000
15.0300 31.0000 1.0000
15.0400 29.0000 1.0000
15.0500 38.0000 1.0000
15.0600 22.0000 1.0000
15.0700 26.0000 1.0000
15.0800 24.0000 1.0000
15.0900 29.0000 1.0000
15.1000 30.0000 1.0000
15.1100 18.0000 1.0000
15.1200 22.0000 1.0000
15.1300 21.0000 1.0000
15.1400 30.0000 1.0000
15.1500 24.0000 1.0000
15.1600 25.0000 1.0000
15.1700 22.0000 1.0000
15.1800 22.0000 1.0000
15.1900 17.0000 1.0000
15.2000 29.0000 1.0000
15.2100 21.0000 1.0000
15.2200 17.0000 1.0000
15.2300 27.0000 1.0000
15.2400 22.0000 1.0000
15.2500 31.0000 1.0000
15.2600 30.0000 1.0000
15.2700 20.0000 1.0000
15.2800 25.0000 1.0000
15.2900 24.0000 1.0000
15.3000 20.0000 1.0000
15.3100 32.0000 1.0000
15.3200 22.0000 1.0000
15.3300 26.0000 1.0000
15.3400 19.0000 1.0000
15.3500 26.0000 1.0000
15.3600 22.0000 1.0000
15.3700 19.0000 1.0000
15.3800 30.0000 1.0000
15.3900 20.0000 1.0000
15.4000 19.0000 1.0000
15.4100 30.0000 1.0000
15.4200 30.0000 1.0000
15.4300 16.0000 1.0000
15.4400 19.0000 1.0000
15.4500 30.0000 1.0000
15.4600 27.0000 1.0000
15.4700 25.0000 1.0000
15.4800 30.0000 1.0000
15.4900 19.0000 1.0000
15.5000 28.0000 1.0000
15.5100 32.0000 1.0000
15.5200 22.0000 1.0000
15.5300 32.0000 1.0000
15.5400 24.0000 1.0000
15.5500 22.0000 1.0000
15.5600 16.0000 1.0000
15.5700 20.0000 1.0000
15.5800 23.0000 1.0000
15.5900 22.0000 1.0000
15.6000 14.0000 1.0000
15.6100 26.0000 1.0000
15.6200 29.0000 1.0000
15.6300 23.0000 1.0000
15.6400 23.0000 1.0000
15.6500 20.0000 1.0000
15.6600 22.0000 1.0000
15.6700 29.0000 1.0000
15.6800 23.0000 1.0000
15.6900 14.0000 1.0000
15.7000 26.0000 1.0000
15.7100 22.0000 1.0000
15.7200 27.0000 1.0000
15.7300 13.0000 1.0000
15.7400 28.0000 1.0000
15.7500 19.0000 1.0000
15.7600 28.0000 1.0000
15.7700 31.0000 1.0000
15.7800 24.0000 1.0000
15.7900 28.0000 1.0000
15.8000 21.0000 1.0000
15.8100 20.0000 1.0000
15.8200 19.0000 1.0000
15.8300 26.0000 1.0000
15.8400 22.0000 1.0000
15.8500 18.0000 1.0000
15.8600 25.0000 1.0000
15.8700 23.0000 1.0000
15.8800 17.0000 1.0000
15.8900 26.0000 1.0000
15.9000 20.0000 1.0000
15.9100 20.0000 1.0000
15.9200 20.0000 1.0000
15.9300 19.0000 1.0000
15.9400 22.0000 1.0000
15.9500 23.0000 1.0000
15.9600 26.0000 1.0000
15.9700 19.0000 1.0000
15.9800 20.0000 1.0000
15.9900 23.0000 1.0000
16.0000 22.0000 1.0000
16.0100 11.0000 1.0000
16.0200 31.0000 1.0000
16.0300 21.0000 1.0000
16.0400 16.0000 1.0000
16.0500 25.0000 1.0000
16.0600 22.0000 1.0000
16.0700 22.0000 1.0000
16.0800 25.0000 1.0000
16.0900 24.0000 1.0000
16.1000 26.0000 1.0000
16.1100 16.0000 1.0000
16.1200 22.0000 1.0000
16.1300 15.0000 1.0000
16.1400 30.0000 1.0000
16.1500 19.0000 1.0000
16.1600 20.0000 1.0000
16.1700 24.0000 1.0000
16.1800 24.0000 1.0000
16.1900 19.0000 1.0000
16.2000 21.0000 1.0000
16.2100 26.0000 1.0000
16.2200 25.0000 1.0000
16.2300 18.0000 1.0000
16.2400 18.0000 1.0000
16.2500 16.0000 1.0000
16.2600 23.0000 1.0000
16.2700 17.0000 1.0000
16.2800 33.0000 1.0000
16.2900 22.0000 1.0000
16.3000 18.0000 1.0000
16.3100 16.0000 1.0000
16.3200 12.0000 1.0000
16.3300 27.0000 1.0000
16.3400 24.0000 1.0000
16.3500 22.0000 1.0000
16.3600 17.0000 1.0000
16.3700 23.0000 1.0000
16.3800 26.0000 1.0000
16.3900 15.0000 1.0000
16.4000 20.0000 1.0000
16.4100 11.0000 1.0000
16.4200 19.0000 1.0000
16.4300 23.0000 1.0000
16.4400 19.0000 1.0000
16.4500 15.0000 1.0000
16.4600 17.0000 1.0000
16.4700 15.0000 1.0000
16.4800 21.0000 1.0000
16.4900 21.0000 1.0000
16.5000 18.0000 1.0000
16.5100 28.0000 1.0000
16.5200 13.0000 1.0000
16.5300 18.0000 1.0000
16.5400 26.0000 1.0000
16.5500 19.0000 1.0000
16.5600 14.0000 1.0000
16.5700 20.0000 1.0000
16.5800 26.0000 1.0000
16.5900 19.0000 1.0000
16.6000 23.0000 1.0000
16.6100 20.0000 1.0000
16.6200 12.0000 1.0000
16.6300 17.0000 1.0000
16.6400 26.0000 1.0000
16.6500 26.0000 1.0000
16.6600 18.0000 1.0000
16.6700 24.0000 1.0000
16.6800 29.0000 1.0000
16.6900 27.0000 1.0000
16.7000 8.0000 1.0000
16.7100 25.0000 1.0000
16.7200 17.0000 1.0000
16.7300 22.0000 1.0000
16.7400 23.0000 1.0000
16.7500 18.0000 1.0000
16.7600 14.0000 1.0000
16.7700 22.0000 1.0000
16.7800 28.0000 1.0000
16.7900 27.0000 1.0000
16.8000 18.0000 1.0000
16.8100 14.0000 1.0000
16.8200 23.0000 1.0000
16.8300 17.0000 1.0000
16.8400 23.0000 1.0000
16.8500 20.0000 1.0000
16.8600 18.0000 1.0000
16.8700 21.0000 1.0000
16.8800 16.0000 1.0000
16.8900 24.0000 1.0000
16.9000 20.0000 1.0000
16.9100 21.0000 1.0000
16.9200 20.0000 1.0000
16.9300 25.0000 1.0000
16.9400 16.0000 1.0000
16.9500 20.0000 1.0000
16.9600 20.0000 1.0000
16.9700 24.0000 1.0000
16.9800 21.0000 1.0000
16.9900 22.0000 1.0000
17.0000 21.0000 1.0000
17.0100 20.0000 1.0000
17.0200 16.0000 1.0000
17.0300 22.0000 1.0000
17.0400 16.0000 1.0000
17.0500 20.0000 1.0000
17.0600 21.0000 1.0000
17.0700 19.0000 1.0000
17.0800 14.0000 1.0000
17.0900 26.0000 1.0000
17.1000 14.0000 1.0000
17.1100 21.0000 1.0000
17.1200 14.0000 1.0000
17.1300 27.0000 1.0000
17.1400 23.0000 1.0000
17.1500 20.0000 1.0000
17.1600 24.0000 1.0000
17.1700 18.0000 1.0000
17.1800 25.0000 1.0000
17.1900 21.0000 1.0000
17.2000 10.0000 1.0000
17.2100 18.0000 1.0000
17.2200 19.0000 1.0000
17.2300 28.0000 1.0000
17.2400 18.0000 1.0000
17.2500 18.0000 1.0000
17.2600 30.0000 1.0000
17.2700 25.0000 1.0000
17.2800 22.0000 1.0000
17.2900 20.0000 1.0000
17.3000 23.0000 1.0000
17.3100 16.0000 1.0000
17.3200 24.0000 1.0000
17.3300 14.0000 1.0000
17.3400 15.0000 1.0000
17.3500 26.0000 1.0000
17.3600 24.0000 1.0000
17.3700 20.0000 1.0000
17.3800 26.0000 1.0000
17.3900 23.0000 1.0000
17.4000 20.0000 1.0000
17.4100 15.0000 1.0000
17.4200 13.0000 1.0000
17.4300 15.0000 1.0000
17.4400 12.0000 1.0000
17.4500 15.0000 1.0000
17.4600 28.0000 1.0000
17.4700 14.0000 1.0000
17.4800 21.0000 1.0000
17.4900 15.0000 1.0000
17.5000 21.0000 1.0000
17.5100 20.0000 1.0000
17.5200 24.0000 1.0000
17.5300 21.0000 1.0000
17.5400 26.0000 1.0000
17.5500 24.0000 1.0000
17.5600 13.0000 1.0000
17.5700 20.0000 1.0000
17.5800 16.0000 1.0000
17.5900 12.0000 1.0000
17.6000 20.0000 1.0000
17.6100 20.0000 1.0000
17.6200 20.0000 1.0000
17.6300 28.0000 1.0000
17.6400 22.0000 1.0000
17.6500 22.0000 1.0000
17.6600 28.0000 1.0000
17.6700 28.0000 1.0000
17.6800 24.0000 1.0000
17.6900 16.0000 1.0000
17.7000 17.0000 1.0000
17.7100 25.0000 1.0000
17.7200 26.0000 1.0000
17.7300 25.0000 1.0000
17.7400 12.0000 1.0000
17.7500 19.0000 1.0000
17.7600 18.0000 1.0000
17.7700 11.0000 1.0000
17.7800 24.0000 1.0000
17.7900 21.0000 1.0000
17.8000 20.0000 1.0000
17.8100 14.0000 1.0000
17.8200 24.0000 1.0000
17.8300 24.0000 1.0000
17.8400 17.0000 1.0000
17.8500 6.0000 1.0000
17.8600 10.0000 1.0000
17.8700 24.0000 1.0000
17.8800 19.0000 1.0000
17.8900 22.0000 1.0000
17.9000 16.0000 1.0000
17.9100 20.0000 1.0000
17.9200 20.0000 1.0000
17.9300 15.0000 1.0000
17.9400 20.0000 1.0000
17.9500 21.0000 1.0000
17.9600 17.0000 1.0000
17.9700 17.0000 1.0000
17.9800 20.0000 1.0000
17.9900 24.0000 1.0000
18.0000 21.0000 1.0000
18.0100 20.0000 1.0000
18.0200 17.0000 1.0000
18.0300 28.0000 1.0000
18.0400 18.0000 1.0000
18.0500 36.0000 1.0000
18.0600 20.0000 1.0000
18.0700 27.0000 1.0000
18.0800 22.0000 1.0000
18.0900 20.0000 1.0000
18.1000 21.0000 1.0000
18.1100 24.0000 1.0000
18.1200 16.0000 1.0000
18.1300 23.0000 1.0000
18.1400 16.0000 1.0000
18.1500 21.0000 1.0000
18.1600 16.0000 1.0000
18.1700 22.0000 1.0000
18.1800 25.0000 1.0000
18.1900 21.0000 1.0000
18.2000 16.0000 1.0000
18.2100 21.0000 1.0000
18.2200 27.0000 1.0000
18.2300 14.0000 1.0000
18.2400 17.0000 1.0000
18.2500 22.0000 1.0000
18.2600 22.0000 1.0000
18.2700 31.0000 1.0000
18.2800 16.0000 1.0000
18.2900 18.0000 1.0000
18.3000 15.0000 1.0000
18.3100 18.0000 1.0000
18.3200 26.0000 1.0000
18.3300 19.0000 1.0000
18.3400 23.0000 1.0000
18.3500 12.0000 1.0000
18.3600 18.0000 1.0000
18.3700 22.0000 1.0000
18.3800 22.0000 1.0000
18.3900 23.0000 1.0000
18.4000 25.0000 1.0000
18.4100 19.0000 1.0000
18.4200 18.0000 1.0000
18.4300 24.0000 1.0000
18.4400 13.0000 1.0000
18.4500 22.0000 1.0000
18.4600 18.0000 1.0000
18.4700 18.0000 1.0000
18.4800 20.0000 1.0000
18.4900 11.0000 1.0000
18.5000 23.0000 1.0000
18.5100 14.0000 1.0000
18.5200 28.0000 1.0000
18.5300 15.0000 1.0000
18.5400 13.0000 1.0000
18.5500 18.0000 1.0000
18.5600 14.0000 1.0000
18.5700 27.0000 1.0000
18.5800 13.0000 1.0000
18.5900 18.0000 1.0000
18.6000 21.0000 1.0000
18.6100 35.0000 1.0000
18.6200 23.0000 1.0000
18.6300 15.0000 1.0000
18.6400 17.0000 1.0000
18.6500 21.0000 1.0000
18.6600 11.0000 1.0000
18.6700 21.0000 1.0000
18.6800 13.0000 1.0000
18.6900 21.0000 1.0000
18.7000 18.0000 1.0000
18.7100 18.0000 1.0000
18.7200 16.0000 1.0000
18.7300 16.0000 1.0000
18.7400 25.0000 1.0000
18.7500 22.0000 1.0000
18.7600 18.0000 1.0000
18.7700 16.0000 1.0000
18.7800 23.0000 1.0000
18.7900 24.0000 1.0000
18.8000 17.0000 1.0000
18.8100 19.0000 1.0000
18.8200 23.0000 1.0000
18.8300 14.0000 1.0000
18.8400 18.0000 1.0000
18.8500 21.0000 1.0000
18.8600 16.0000 1.0000
18.8700 21.0000 1.0000
18.8800 18.0000 1.0000
18.8900 20.0000 1.0000
18.9000 25.0000 1.0000
18.9100 17.0000 1.0000
18.9200 13.0000 1.0000
18.9300 14.0000 1.0000
18.9400 17.0000 1.0000
18.9500 16.0000 1.0000
18.9600 20.0000 1.0000
18.9700 20.0000 1.0000
18.9800 15.0000 1.0000
18.9900 21.0000 1.0000
19.0000 19.0000 1.0000
19.0100 15.0000 1.0000
19.0200 21.0000 1.0000
19.0300 28.0000 1.0000
19.0400 19.0000 1.0000
19.0500 17.0000 1.0000
19.0600 21.0000 1.0000
19.0700 18.0000 1.0000
19.0800 19.0000 1.0000
19.0900 21.0000 1.0000
19.1000 23.0000 1.0000
19.1100 14.0000 1.0000
19.1200 17.0000 1.0000
19.1300 22.0000 1.0000
19.1400 24.0000 1.0000
19.1500 15.0000 1.0000
19.1600 17.0000 1.0000
19.1700 21.0000 1.0000
19.1800 14.0000 1.0000
19.1900 25.0000 1.0000
19.2000 11.0000 1.0000
19.2100 17.0000 1.0000
19.2200 14.0000 1.0000
19.2300 24.0000 1.0000
19.2400 19.0000 1.0000
19.2500 17.0000 1.0000
19.2600 12.0000 1.0000
19.2700 18.0000 1.0000
19.2800 18.0000 1.0000
19.2900 11.0000 1.0000
19.3000 13.0000 1.0000
19.3100 15.0000 1.0000
19.3200 18.0000 1.0000
19.3300 18.0000 1.0000
19.3400 20.0000 1.0000
19.3500 11.0000 1.0000
19.3600 17.0000 1.0000
19.3700 15.0000 1.0000
19.3800 24.0000 1.0000
19.3900 16.0000 1.0000
19.4000 19.0000 1.0000
19.4100 25.0000 1.0000
19.4200 22.0000 1.0000
19.4300 20.0000 1.0000
19.4400 14.0000 1.0000
19.4500 21.0000 1.0000
19.4600 15.0000 1.0000
19.4700 12.0000 1.0000
19.4800 22.0000 1.0000
19.4900 22.0000 1.0000
19.5000 18.0000 1.0000
19.5100 15.0000 1.0000
19.5200 22.0000 1.0000
19.5300 20.0000 1.0000
19.5400 16.0000 1.0000
19.5500 15.0000 1.0000
19.5600 19.0000 1.0000
19.5700 15.0000 1.0000
19.5800 19.0000 1.0000
19.5900 19.0000 1.0000
19.6000 13.0000 1.0000
19.6100 17.0000 1.0000
19.6200 22.0000 1.0000
19.6300 13.0000 1.0000
19.6400 13.0000 1.0000
19.6500 22.0000 1.0000
19.6600 24.0000 1.0000
19.6700 18.0000 1.0000
19.6800 16.0000 1.0000
19.6900 24.0000 1.0000
19.7000 24.0000 1.0000
19.7100 16.0000 1.0000
19.7200 13.0000 1.0000
19.7300 16.0000 1.0000
19.7400 21.0000 1.0000
19.7500 16.0000 1.0000
19.7600 19.0000 1.0000
19.7700 11.0000 1.0000
19.7800 25.0000 1.0000
19.7900 19.0000 1.0000
19.8000 17.0000 1.0000
19.8100 19.0000 1.0000
19.8200 24.0000 1.0000
19.8300 21.0000 1.0000
19.8400 29.0000 1.0000
19.8500 15.0000 1.0000
19.8600 22.0000 1.0000
19.8700 17.0000 1.0000
19.8800 19.0000 1.0000
19.8900 21.0000 1.0000
19.9000 16.0000 1.0000
19.9100 21.0000 1.0000
19.9200 18.0000 1.0000
19.9300 13.0000 1.0000
19.9400 16.0000 1.0000
19.9500 15.0000 1.0000
19.9600 12.0000 1.0000
19.9700 14.0000 1.0000
19.9800 14.0000 1.0000
19.9900 27.0000 1.0000
20.0000 15.0000 1.0000
20.0100 20.0000 1.0000
20.0200 18.0000 1.0000
20.0300 19.0000 1.0000
20.0400 20.0000 1.0000
20.0500 19.0000 1.0000
20.0600 20.0000 1.0000
20.0700 12.0000 1.0000
20.0800 16.0000 1.0000
20.0900 15.0000 1.0000
20.1000 18.0000 1.0000
20.1100 20.0000 1.0000
20.1200 13.0000 1.0000
20.1300 13.0000 1.0000
20.1400 18.0000 1.0000
20.1500 19.0000 1.0000
20.1600 14.0000 1.0000
20.1700 24.0000 1.0000
20.1800 16.0000 1.0000
20.1900 18.0000 1.0000
20.2000 18.0000 1.0000
20.2100 23.0000 1.0000
20.2200 12.0000 1.0000
20.2300 20.0000 1.0000
20.2400 12.0000 1.0000
20.2500 20.0000 1.0000
20.2600 27.0000 1.0000
20.2700 10.0000 1.0000
20.2800 16.0000 1.0000
20.2900 20.0000 1.0000
20.3000 23.0000 1.0000
20.3100 11.0000 1.0000
20.3200 18.0000 1.0000
20.3300 15.0000 1.0000
20.3400 20.0000 1.0000
20.3500 24.0000 1.0000
20.3600 21.0000 1.0000
20.3700 16.0000 1.0000
20.3800 15.0000 1.0000
20.3900 19.0000 1.0000
20.4000 14.0000 1.0000
20.4100 12.0000 1.0000
20.4200 19.0000 1.0000
20.4300 21.0000 1.0000
20.4400 20.0000 1.0000
20.4500 14.0000 1.0000
20.4600 12.0000 1.0000
20.4700 15.0000 1.0000
20.4800 13.0000 1.0000
20.4900 23.0000 1.0000
20.5000 15.0000 1.0000
20.5100 13.0000 1.0000
20.5200 17.0000 1.0000
20.5300 18.0000 1.0000
20.5400 16.0000 1.0000
20.5500 15.0000 1.0000
20.5600 16.0000 1.0000
20.5700 14.0000 1.0000
20.5800 16.0000 1.0000
20.5900 25.0000 1.0000
20.6000 20.0000 1.0000
20.6100 22.0000 1.0000
20.6200 17.0000 1.0000
20.6300 20.0000 1.0000
20.6400 13.0000 1.0000
20.6500 16.0000 1.0000
20.6600 24.0000 1.0000
20.6700 17.0000 1.0000
20.6800 11.0000 1.0000
20.6900 18.0000 1.0000
20.7000 24.0000 1.0000
20.7100 16.0000 1.0000
20.7200 15.0000 1.0000
20.7300 19.0000 1.0000
20.7400 12.0000 1.0000
20.7500 14.0000 1.0000
20.7600 15.0000 1.0000
20.7700 13.0000 1.0000
20.7800 21.0000 1.0000
20.7900 21.0000 1.0000
20.8000 22.0000 1.0000
20.8100 14.0000 1.0000
20.8200 22.0000 1.0000
20.8300 25.0000 1.0000
20.8400 18.0000 1.0000
20.8500 16.0000 1.0000
20.8600 16.0000 1.0000
20.8700 13.0000 1.0000
20.8800 13.0000 1.0000
20.8900 18.0000 1.0000
20.9000 15.0000 1.0000
20.9100 13.0000 1.0000
20.9200 15.0000 1.0000
20.9300 19.0000 1.0000
20.9400 18.0000 1.0000
20.9500 12.0000 1.0000
20.9600 15.0000 1.0000
20.9700 14.0000 1.0000
20.9800 17.0000 1.0000
20.9900 13.0000 1.0000
21.0000 23.0000 1.0000
21.0100 8.0000 1.0000
21.0200 23.0000 1.0000
21.0300 12.0000 1.0000
21.0400 22.0000 1.0000
21.0500 17.0000 1.0000
21.0600 20.0000 1.0000
21.0700 18.0000 1.0000
21.0800 10.0000 1.0000
21.0900 17.0000 1.0000
21.1000 15.0000 1.0000
21.1100 17.0000 1.0000
21.1200 15.0000 1.0000
21.1300 19.0000 1.0000
21.1400 15.0000 1.0000
21.1500 21.0000 1.0000
21.1600 13.0000 1.0000
21.1700 10.0000 1.0000
21.1800 20.0000 1.0000
21.1900 18.0000 1.0000
21.2000 12.0000 1.0000
21.2100 15.0000 1.0000
21.2200 16.0000 1.0000
21.2300 15.0000 1.0000
21.2400 14.0000 1.0000
21.2500 21.0000 1.0000
21.2600 10.0000 1.0000
21.2700 20.0000 1.0000
21.2800 16.0000 1.0000
21.2900 14.0000 1.0000
21.3000 17.0000 1.0000
21.3100 26.0000 1.0000
21.3200 8.0000 1.0000
21.3300 17.0000 1.0000
21.3400 12.0000 1.0000
21.3500 18.0000 1.0000
21.3600 21.0000 1.0000
21.3700 16.0000 1.0000
21.3800 10.0000 1.0000
21.3900 13.0000 1.0000
21.4000 20.0000 1.0000
21.4100 9.0000 1.0000
21.4200 16.0000 1.0000
21.4300 12.0000 1.0000
21.4400 6.0000 1.0000
21.4500 16.0000 1.0000
21.4600 18.0000 1.0000
21.4700 18.0000 1.0000
21.4800 18.0000 1.0000
21.4900 14.0000 1.0000
21.5000 19.0000 1.0000
21.5100 12.0000 1.0000
21.5200 12.0000 1.0000
21.5300 18.0000 1.0000
21.5400 13.0000 1.0000
21.5500 26.0000 1.0000
21.5600 17.0000 1.0000
21.5700 19.0000 1.0000
21.5800 27.0000 1.0000
21.5900 15.0000 1.0000
21.6000 20.0000 1.0000
21.6100 21.0000 1.0000
21.6200 14.0000 1.0000
21.6300 20.0000 1.0000
21.6400 15.0000 1.0000
21.6500 20.0000 1.0000
21.6600 13.0000 1.0000
21.6700 14.0000 1.0000
21.6800 13.0000 1.0000
21.6900 14.0000 1.0000
21.7000 17.0000 1.0000
21.7100 17.0000 1.0000
21.7200 18.0000 1.0000
21.7300 16.0000 1.0000
21.7400 18.0000 1.0000
21.7500 7.0000 1.0000
21.7600 17.0000 1.0000
21.7700 20.0000 1.0000
21.7800 15.0000 1.0000
21.7900 13.0000 1.0000
21.8000 14.0000 1.0000
21.8100 13.0000 1.0000
21.8200 21.0000 1.0000
21.8300 15.0000 1.0000
21.8400 16.0000 1.0000
21.8500 19.0000 1.0000
21.8600 16.0000 1.0000
21.8700 15.0000 1.0000
21.8800 18.0000 1.0000
21.8900 11.0000 1.0000
21.9000 9.0000 1.0000
21.9100 15.0000 1.0000
21.9200 15.0000 1.0000
21.9300 9.0000 1.0000
21.9400 16.0000 1.0000
21.9500 14.0000 1.0000
21.9600 15.0000 1.0000
21.9700 18.0000 1.0000
21.9800 11.0000 1.0000
21.9900 13.0000 1.0000
22.0000 14.0000 1.0000
22.0100 15.0000 1.0000
22.0200 20.0000 1.0000
22.0300 13.0000 1.0000
22.0400 12.0000 1.0000
22.0500 17.0000 1.0000
22.0600 13.0000 1.0000
22.0700 16.0000 1.0000
22.0800 12.0000 1.0000
22.0900 20.0000 1.0000
22.1000 21.0000 1.0000
22.1100 16.0000 1.0000
22.1200 11.0000 1.0000
22.1300 13.0000 1.0000
22.1400 15.0000 1.0000
22.1500 11.0000 1.0000
22.1600 12.0000 1.0000
22.1700 14.0000 1.0000
22.1800 12.0000 1.0000
22.1900 14.0000 1.0000
22.2000 17.0000 1.0000
22.2100 12.0000 1.0000
22.2200 20.0000 1.0000
22.2300 16.0000 1.0000
22.2400 20.0000 1.0000
22.2500 17.0000 1.0000
22.2600 12.0000 1.0000
22.2700 11.0000 1.0000
22.2800 17.0000 1.0000
22.2900 19.0000 1.0000
22.3000 14.0000 1.0000
22.3100 19.0000 1.0000
22.3200 18.0000 1.0000
22.3300 15.0000 1.0000
22.3400 11.0000 1.0000
22.3500 13.0000 1.0000
22.3600 12.0000 1.0000
22.3700 10.0000 1.0000
22.3800 14.0000 1.0000
22.3900 14.0000 1.0000
22.4000 15.0000 1.0000
22.4100 20.0000 1.0000
22.4200 24.0000 1.0000
22.4300 17.0000 1.0000
22.4400 20.0000 1.0000
22.4500 11.0000 1.0000
22.4600 19.0000 1.0000
22.4700 13.0000 1.0000
22.4800 11.0000 1.0000
22.4900 21.0000 1.0000
22.5000 17.0000 1.0000
22.5100 13.0000 1.0000
22.5200 15.0000 1.0000
22.5300 24.0000 1.0000
22.5400 17.0000 1.0000
22.5500 18.0000 1.0000
22.5600 14.0000 1.0000
22.5700 11.0000 1.0000
22.5800 16.0000 1.0000
22.5900 22.0000 1.0000
22.6000 12.0000 1.0000
22.6100 18.0000 1.0000
22.6200 9.0000 1.0000
22.6300 17.0000 1.0000
22.6400 10.0000 1.0000
22.6500 20.0000 1.0000
22.6600 10.0000 1.0000
22.6700 18.0000 1.0000
22.6800 13.0000 1.0000
22.6900 19.0000 1.0000
22.7000 13.0000 1.0000
22.7100 13.0000 1.0000
22.7200 20.0000 1.0000
22.7300 15.0000 1.0000
22.7400 16.0000 1.0000
22.7500 13.0000 1.0000
22.7600 19.0000 1.0000
22.7700 15.0000 1.0000
22.7800 10.0000 1.0000
22.7900 17.0000 1.0000
22.8000 13.0000 1.0000
22.8100 6.0000 1.0000
22.8200 16.0000 1.0000
22.8300 6.0000 1.0000
22.8400 15.0000 1.0000
22.8500 13.0000 1.0000
22.8600 21.0000 1.0000
22.8700 11.0000 1.0000
22.8800 13.0000 1.0000
22.8900 14.0000 1.0000
22.9000 16.0000 1.0000
22.9100 17.0000 1.0000
22.9200 15.0000 1.0000
22.9300 14.0000 1.0000
22.9400 15.0000 1.0000
22.9500 17.0000 1.0000
22.9600 19.0000 1.0000
22.9700 22.0000 1.0000
22.9800 13.0000 1.0000
22.9900 14.0000 1.0000
23.0000 20.0000 1.0000
23.0100 19.0000 1.0000
23.0200 15.0000 1.0000
23.0300 15.0000 1.0000
23.0400 21.0000 1.0000
23.0500 21.0000 1.0000
23.0600 9.0000 1.0000
23.0700 16.0000 1.0000
23.0800 15.0000 1.0000
23.0900 14.0000 1.0000
23.1000 14.0000 1.0000
23.1100 14.0000 1.0000
23.1200 18.0000 1.0000
23.1300 12.0000 1.0000
23.1400 17.0000 1.0000
23.1500 12.0000 1.0000
23.1600 16.0000 1.0000
23.1700 20.0000 1.0000
23.1800 14.0000 1.0000
23.1900 8.0000 1.0000
23.2000 19.0000 1.0000
23.2100 21.0000 1.0000
23.2200 17.0000 1.0000
23.2300 19.0000 1.0000
23.2400 18.0000 1.0000
23.2500 12.0000 1.0000
23.2600 16.0000 1.0000
23.2700 18.0000 1.0000
23.2800 15.0000 1.0000
23.2900 14.0000 1.0000
23.3000 22.0000 1.0000
23.3100 17.0000 1.0000
23.3200 13.0000 1.0000
23.3300 12.0000 1.0000
23.3400 17.0000 1.0000
23.3500 14.0000 1.0000
23.3600 14.0000 1.0000
23.3700 12.0000 1.0000
23.3800 18.0000 1.0000
23.3900 15.0000 1.0000
23.4000 17.0000 1.0000
23.4100 19.0000 1.0000
23.4200 15.0000 1.0000
23.4300 14.0000 1.0000
23.4400 25.0000 1.0000
23.4500 19.0000 1.0000
23.4600 11.0000 1.0000
23.4700 9.0000 1.0000
23.4800 13.0000 1.0000
23.4900 7.0000 1.0000
23.5000 11.0000 1.0000
23.5100 17.0000 1.0000
23.5200 25.0000 1.0000
23.5300 19.0000 1.0000
23.5400 9.0000 1.0000
23.5500 13.0000 1.0000
23.5600 13.0000 1.0000
23.5700 12.0000 1.0000
23.5800 15.0000 1.0000
23.5900 11.0000 1.0000
23.6000 23.0000 1.0000
23.6100 15.0000 1.0000
23.6200 12.0000 1.0000
23.6300 8.0000 1.0000
23.6400 15.0000 1.0000
23.6500 9.0000 1.0000
23.6600 13.0000 1.0000
23.6700 12.0000 1.0000
23.6800 6.0000 1.0000
23.6900 8.0000 1.0000
23.7000 12.0000 1.0000
23.7100 10.0000 1.0000
23.7200 20.0000 1.0000
23.7300 11.0000 1.0000
23.7400 21.0000 1.0000
23.7500 17.0000 1.0000
23.7600 12.0000 1.0000
23.7700 15.0000 1.0000
23.7800 15.0000 1.0000
23.7900 18.0000 1.0000
23.8000 18.0000 1.0000
23.8100 16.0000 1.0000
23.8200 9.0000 1.0000
23.8300 17.0000 1.0000
23.8400 17.0000 1.0000
23.8500 19.0000 1.0000
23.8600 15.0000 1.0000
23.8700 10.0000 1.0000
23.8800 21.0000 1.0000
23.8900 15.0000 1.0000
23.9000 13.0000 1.0000
23.9100 11.0000 1.0000
23.9200 15.0000 1.0000
23.9300 17.0000 1.0000
23.9400 9.0000 1.0000
23.9500 7.0000 1.0000
23.9600 15.0000 1.0000
23.9700 17.0000 1.0000
23.9800 10.0000 1.0000
23.9900 13.0000 1.0000
24.0000 11.0000 1.0000
24.0100 15.0000 1.0000
24.0200 12.0000 1.0000
24.0300 13.0000 1.0000
24.0400 17.0000 1.0000
24.0500 19.0000 1.0000
24.0600 17.0000 1.0000
24.0700 7.0000 1.0000
24.0800 16.0000 1.0000
24.0900 18.0000 1.0000
24.1000 8.0000 1.0000
24.1100 23.0000 1.0000
24.1200 20.0000 1.0000
24.1300 11.0000 1.0000
24.1400 20.0000 1.0000
24.1500 19.0000 1.0000
24.1600 15.0000 1.0000
24.1700 12.0000 1.0000
24.1800 17.0000 1.0000
24.1900 8.0000 1.0000
24.2000 6.0000 1.0000
24.2100 26.0000 1.0000
24.2200 23.0000 1.0000
24.2300 18.0000 1.0000
24.2400 15.0000 1.0000
24.2500 9.0000 1.0000
24.2600 14.0000 1.0000
24.2700 12.0000 1.0000
24.2800 21.0000 1.0000
24.2900 13.0000 1.0000
24.3000 20.0000 1.0000
24.3100 16.0000 1.0000
24.3200 20.0000 1.0000
24.3300 19.0000 1.0000
24.3400 15.0000 1.0000
24.3500 11.0000 1.0000
24.3600 14.0000 1.0000
24.3700 13.0000 1.0000
24.3800 10.0000 1.0000
24.3900 14.0000 1.0000
24.4000 21.0000 1.0000
24.4100 8.0000 1.0000
24.4200 14.0000 1.0000
24.4300 15.0000 1.0000
24.4400 11.0000 1.0000
24.4500 7.0000 1.0000
24.4600 13.0000 1.0000
24.4700 17.0000 1.0000
24.4800 12.0000 1.0000
24.4900 16.0000 1.0000
24.5000 16.0000 1.0000
24.5100 12.0000 1.0000
24.5200 12.0000 1.0000
24.5300 12.0000 1.0000
24.5400 15.0000 1.0000
24.5500 19.0000 1.0000
24.5600 13.0000 1.0000
24.5700 17.0000 1.0000
24.5800 16.0000 1.0000
24.5900 15.0000 1.0000
24.6000 8.0000 1.0000
24.6100 11.0000 1.0000
24.6200 13.0000 1.0000
24.6300 9.0000 1.0000
24.6400 14.0000 1.0000
24.6500 6.0000 1.0000
24.6600 12.0000 1.0000
24.6700 12.0000 1.0000
24.6800 14.0000 1.0000
24.6900 15.0000 1.0000
24.7000 14.0000 1.0000
24.7100 16.0000 1.0000
24.7200 12.0000 1.0000
24.7300 17.0000 1.0000
24.7400 12.0000 1.0000
24.7500 7.0000 1.0000
24.7600 13.0000 1.0000
24.7700 19.0000 1.0000
24.7800 10.0000 1.0000
24.7900 12.0000 1.0000
24.8000 8.0000 1.0000
24.8100 11.0000 1.0000
24.8200 16.0000 1.0000
24.8300 13.0000 1.0000
24.8400 17.0000 1.0000
24.8500 11.0000 1.0000
24.8600 17.0000 1.0000
24.8700 20.0000 1.0000
24.8800 17.0000 1.0000
24.8900 19.0000 1.0000
24.9000 11.0000 1.0000
24.9100 22.0000 1.0000
24.9200 18.0000 1.0000
24.9300 13.0000 1.0000
24.9400 9.0000 1.0000
24.9500 10.0000 1.0000
24.9600 11.0000 1.0000
24.9700 12.0000 1.0000
24.9800 12.0000 1.0000
24.9900 12.0000 1.0000
25.0000 16.0000 1.0000
25.0100 13.0000 1.0000
25.0200 11.0000 1.0000
25.0300 18.0000 1.0000
25.0400 21.0000 1.0000
25.0500 18.0000 1.0000
25.0600 15.0000 1.0000
25.0700 14.0000 1.0000
25.0800 11.0000 1.0000
25.0900 21.0000 1.0000
25.1000 14.0000 1.0000
25.1100 15.0000 1.0000
25.1200 12.0000 1.0000
25.1300 11.0000 1.0000
25.1400 17.0000 1.0000
25.1500 9.0000 1.0000
25.1600 13.0000 1.0000
25.1700 8.0000 1.0000
25.1800 14.0000 1.0000
25.1900 10.0000 1.0000
25.2000 10.0000 1.0000
25.2100 12.0000 1.0000
25.2200 18.0000 1.0000
25.2300 11.0000 1.0000
25.2400 13.0000 1.0000
25.2500 19.0000 1.0000
25.2600 9.0000 1.0000
25.2700 15.0000 1.0000
25.2800 16.0000 1.0000
25.2900 20.0000 1.0000
25.3000 21.0000 1.0000
25.3100 13.0000 1.0000
25.3200 23.0000 1.0000
25.3300 16.0000 1.0000
25.3400 17.0000 1.0000
25.3500 10.0000 1.0000
25.3600 11.0000 1.0000
25.3700 8.0000 1.0000
25.3800 5.0000 1.0000
25.3900 15.0000 1.0000
25.4000 17.0000 1.0000
25.4100 10.0000 1.0000
25.4200 12.0000 1.0000
25.4300 18.0000 1.0000
25.4400 13.0000 1.0000
25.4500 12.0000 1.0000
25.4600 7.0000 1.0000
25.4700 11.0000 1.0000
25.4800 18.0000 1.0000
25.4900 17.0000 1.0000
25.5000 17.0000 1.0000
25.5100 17.0000 1.0000
25.5200 12.0000 1.0000
25.5300 17.0000 1.0000
25.5400 10.0000 1.0000
25.5500 12.0000 1.0000
25.5600 16.0000 1.0000
25.5700 22.0000 1.0000
25.5800 10.0000 1.0000
25.5900 10.0000 1.0000
25.6000 13.0000 1.0000
25.6100 20.0000 1.0000
25.6200 6.0000 1.0000
25.6300 10.0000 1.0000
25.6400 14.0000 1.0000
25.6500 26.0000 1.0000
25.6600 13.0000 1.0000
25.6700 18.0000 1.0000
25.6800 16.0000 1.0000
25.6900 8.0000 1.0000
25.7000 14.0000 1.0000
25.7100 15.0000 1.0000
25.7200 14.0000 1.0000
25.7300 9.0000 1.0000
25.7400 14.0000 1.0000
25.7500 13.0000 1.0000
25.7600 11.0000 1.0000
25.7700 11.0000 1.0000
25.7800 16.0000 1.0000
25.7900 15.0000 1.0000
25.8000 12.0000 1.0000
25.8100 14.0000 1.0000
25.8200 20.0000 1.0000
25.8300 15.0000 1.0000
25.8400 13.0000 1.0000
25.8500 23.0000 1.0000
25.8600 17.0000 1.0000
25.8700 12.0000 1.0000
25.8800 9.0000 1.0000
25.8900 13.0000 1.0000
25.9000 15.0000 1.0000
25.9100 18.0000 1.0000
25.9200 11.0000 1.0000
25.9300 10.0000 1.0000
25.9400 10.0000 1.0000
25.9500 17.0000 1.0000
25.9600 11.0000 1.0000
25.9700 9.0000 1.0000
25.9800 20.0000 1.0000
25.9900 14.0000 1.0000
26.0000 7.0000 1.0000
26.0100 11.0000 1.0000
26.0200 17.0000 1.0000
26.0300 17.0000 1.0000
26.0400 14.0000 1.0000
26.0500 7.0000 1.0000
26.0600 8.0000 1.0000
26.0700 20.0000 1.0000
26.0800 15.0000 1.0000
26.0900 15.0000 1.0000
26.1000 14.0000 1.0000
26.1100 15.0000 1.0000
26.1200 11.0000 1.0000
26.1300 14.0000 1.0000
26.1400 15.0000 1.0000
26.1500 20.0000 1.0000
26.1600 18.0000 1.0000
26.1700 12.0000 1.0000
26.1800 10.0000 1.0000
26.1900 18.0000 1.0000
26.2000 14.0000 1.0000
26.2100 12.0000 1.0000
26.2200 14.0000 1.0000
26.2300 10.0000 1.0000
26.2400 17.0000 1.0000
26.2500 18.0000 1.0000
26.2600 11.0000 1.0000
26.2700 10.0000 1.0000
26.2800 8.0000 1.0000
26.2900 14.0000 1.0000
26.3000 13.0000 1.0000
26.3100 10.0000 1.0000
26.3200 14.0000 1.0000
26.3300 13.0000 1.0000
26.3400 20.0000 1.0000
26.3500 15.0000 1.0000
26.3600 17.0000 1.0000
26.3700 15.0000 1.0000
26.3800 13.0000 1.0000
26.3900 12.0000 1.0000
26.4000 13.0000 1.0000
26.4100 11.0000 1.0000
26.4200 15.0000 1.0000
26.4300 20.0000 1.0000
26.4400 14.0000 1.0000
26.4500 13.0000 1.0000
26.4600 15.0000 1.0000
26.4700 23.0000 1.0000
26.4800 14.0000 1.0000
26.4900 14.0000 1.0000
26.5000 12.0000 1.0000
26.5100 7.0000 1.0000
26.5200 10.0000 1.0000
26.5300 16.0000 1.0000
26.5400 13.0000 1.0000
26.5500 16.0000 1.0000
26.5600 19.0000 1.0000
26.5700 14.0000 1.0000
26.5800 15.0000 1.0000
26.5900 12.0000 1.0000
26.6000 9.0000 1.0000
26.6100 14.0000 1.0000
26.6200 18.0000 1.0000
26.6300 12.0000 1.0000
26.6400 9.0000 1.0000
26.6500 7.0000 1.0000
26.6600 11.0000 1.0000
26.6700 12.0000 1.0000
26.6800 10.0000 1.0000
26.6900 13.0000 1.0000
26.7000 16.0000 1.0000
26.7100 6.0000 1.0000
26.7200 22.0000 1.0000
26.7300 12.0000 1.0000
26.7400 15.0000 1.0000
26.7500 7.0000 1.0000
26.7600 19.0000 1.0000
26.7700 13.0000 1.0000
26.7800 16.0000 1.0000
26.7900 16.0000 1.0000
26.8000 14.0000 1.0000
26.8100 13.0000 1.0000
26.8200 19.0000 1.0000
26.8300 19.0000 1.0000
26.8400 15.0000 1.0000
26.8500 12.0000 1.0000
26.8600 14.0000 1.0000
26.8700 12.0000 1.0000
26.8800 12.0000 1.0000
26.8900 14.0000 1.0000
26.9000 10.0000 1.0000
26.9100 16.0000 1.0000
26.9200 14.0000 1.0000
26.9300 17.0000 1.0000
26.9400 17.0000 1.0000
26.9500 9.0000 1.0000
26.9600 9.0000 1.0000
26.9700 7.0000 1.0000
26.9800 8.0000 1.0000
26.9900 13.0000 1.0000
27.0000 13.0000 1.0000
27.0100 9.0000 1.0000
27.0200 21.0000 1.0000
27.0300 13.0000 1.0000
27.0400 8.0000 1.0000
27.0500 13.0000 1.0000
27.0600 12.0000 1.0000
27.0700 11.0000 1.0000
27.0800 12.0000 1.0000
27.0900 21.0000 1.0000
27.1000 20.0000 1.0000
27.1100 16.0000 1.0000
27.1200 11.0000 1.0000
27.1300 11.0000 1.0000
27.1400 21.0000 1.0000
27.1500 18.0000 1.0000
27.1600 16.0000 1.0000
27.1700 12.0000 1.0000
27.1800 14.0000 1.0000
27.1900 12.0000 1.0000
27.2000 12.0000 1.0000
27.2100 8.0000 1.0000
27.2200 13.0000 1.0000
27.2300 9.0000 1.0000
27.2400 15.0000 1.0000
27.2500 6.0000 1.0000
27.2600 11.0000 1.0000
27.2700 11.0000 1.0000
27.2800 16.0000 1.0000
27.2900 14.0000 1.0000
27.3000 14.0000 1.0000
27.3100 11.0000 1.0000
27.3200 15.0000 1.0000
27.3300 15.0000 1.0000
27.3400 10.0000 1.0000
27.3500 15.0000 1.0000
27.3600 9.0000 1.0000
27.3700 11.0000 1.0000
27.3800 12.0000 1.0000
27.3900 7.0000 1.0000
27.4000 14.0000 1.0000
27.4100 15.0000 1.0000
27.4200 13.0000 1.0000
27.4300 8.0000 1.0000
27.4400 9.0000 1.0000
27.4500 20.0000 1.0000
27.4600 13.0000 1.0000
27.4700 13.0000 1.0000
27.4800 17.0000 1.0000
27.4900 7.0000 1.0000
27.5000 29.0000 1.0000
27.5100 11.0000 1.0000
27.5200 17.0000 1.0000
27.5300 13.0000 1.0000
27.5400 14.0000 1.0000
27.5500 15.0000 1.0000
27.5600 15.0000 1.0000
27.5700 11.0000 1.0000
27.5800 14.0000 1.0000
27.5900 14.0000 1.0000
27.6000 19.0000 1.0000
27.6100 17.0000 1.0000
27.6200 12.0000 1.0000
27.6300 14.0000 1.0000
27.6400 12.0000 1.0000
27.6500 10.0000 1.0000
27.6600 15.0000 1.0000
27.6700 7.0000 1.0000
27.6800 15.0000 1.0000
27.6900 10.0000 1.0000
27.7000 6.0000 1.0000
27.7100 10.0000 1.0000
27.7200 10.0000 1.0000
27.7300 6.0000 1.0000
27.7400 16.0000 1.0000
27.7500 15.0000 1.0000
27.7600 6.0000 1.0000
27.7700 16.0000 1.0000
27.7800 14.0000 1.0000
27.7900 16.0000 1.0000
27.8000 13.0000 1.0000
27.8100 12.0000 1.0000
27.8200 14.0000 1.0000
27.8300 9.0000 1.0000
27.8400 15.0000 1.0000
27.8500 11.0000 1.0000
27.8600 18.0000 1.0000
27.8700 12.0000 1.0000
27.8800 19.0000 1.0000
27.8900 12.0000 1.0000
27.9000 19.0000 1.0000
27.9100 9.0000 1.0000
27.9200 18.0000 1.0000
27.9300 7.0000 1.0000
27.9400 9.0000 1.0000
27.9500 10.0000 1.0000
27.9600 14.0000 1.0000
27.9700 14.0000 1.0000
27.9800 13.0000 1.0000
27.9900 9.0000 1.0000
28.0000 11.0000 1.0000
28.0100 19.0000 1.0000
28.0200 9.0000 1.0000
28.0300 15.0000 1.0000
28.0400 10.0000 1.0000
28.0500 13.0000 1.0000
28.0600 9.0000 1.0000
28.0700 9.0000 1.0000
28.0800 14.0000 1.0000
28.0900 11.0000 1.0000
28.1000 14.0000 1.0000
28.1100 17.0000 1.0000
28.1200 13.0000 1.0000
28.1300 11.0000 1.0000
28.1400 11.0000 1.0000
28.1500 7.0000 1.0000
28.1600 16.0000 1.0000
28.1700 18.0000 1.0000
28.1800 7.0000 1.0000
28.1900 13.0000 1.0000
28.2000 12.0000 1.0000
28.2100 13.0000 1.0000
28.2200 12.0000 1.0000
28.2300 12.0000 1.0000
28.2400 13.0000 1.0000
28.2500 10.0000 1.0000
28.2600 11.0000 1.0000
28.2700 13.0000 1.0000
28.2800 13.0000 1.0000
28.2900 14.0000 1.0000
28.3000 11.0000 1.0000
28.3100 9.0000 1.0000
28.3200 13.0000 1.0000
28.3300 13.0000 1.0000
28.3400 12.0000 1.0000
28.3500 10.0000 1.0000
28.3600 11.0000 1.0000
28.3700 11.0000 1.0000
28.3800 13.0000 1.0000
28.3900 11.0000 1.0000
28.4000 16.0000 1.0000
28.4100 14.0000 1.0000
28.4200 14.0000 1.0000
28.4300 18.0000 1.0000
28.4400 12.0000 1.0000
28.4500 7.0000 1.0000
28.4600 8.0000 1.0000
28.4700 13.0000 1.0000
28.4800 7.0000 1.0000
28.4900 6.0000 1.0000
28.5000 7.0000 1.0000
28.5100 13.0000 1.0000
28.5200 10.0000 1.0000
28.5300 7.0000 1.0000
28.5400 16.0000 1.0000
28.5500 14.0000 1.0000
28.5600 8.0000 1.0000
28.5700 11.0000 1.0000
28.5800 9.0000 1.0000
28.5900 9.0000 1.0000
28.6000 11.0000 1.0000
28.6100 10.0000 1.0000
28.6200 11.0000 1.0000
28.6300 15.0000 1.0000
28.6400 11.0000 1.0000
28.6500 13.0000 1.0000
28.6600 15.0000 1.0000
28.6700 13.0000 1.0000
28.6800 10.0000 1.0000
28.6900 15.0000 1.0000
28.7000 16.0000 1.0000
28.7100 14.0000 1.0000
28.7200 7.0000 1.0000
28.7300 8.0000 1.0000
28.7400 11.0000 1.0000
28.7500 9.0000 1.0000
28.7600 6.0000 1.0000
28.7700 12.0000 1.0000
28.7800 5.0000 1.0000
28.7900 12.0000 1.0000
28.8000 13.0000 1.0000
28.8100 9.0000 1.0000
28.8200 20.0000 1.0000
28.8300 14.0000 1.0000
28.8400 17.0000 1.0000
28.8500 8.0000 1.0000
28.8600 19.0000 1.0000
28.8700 13.0000 1.0000
28.8800 13.0000 1.0000
28.8900 24.0000 1.0000
28.9000 13.0000 1.0000
28.9100 12.0000 1.0000
28.9200 6.0000 1.0000
28.9300 13.0000 1.0000
28.9400 15.0000 1.0000
28.9500 13.0000 1.0000
28.9600 11.0000 1.0000
28.9700 17.0000 1.0000
28.9800 12.0000 1.0000
28.9900 14.0000 1.0000
29.0000 18.0000 1.0000
29.0100 22.0000 1.0000
29.0200 9.0000 1.0000
29.0300 15.0000 1.0000
29.0400 12.0000 1.0000
29.0500 15.0000 1.0000
29.0600 15.0000 1.0000
29.0700 14.0000 1.0000
29.0800 12.0000 1.0000
29.0900 11.0000 1.0000
29.1000 5.0000 1.0000
29.1100 10.0000 1.0000
29.1200 12.0000 1.0000
29.1300 11.0000 1.0000
29.1400 13.0000 1.0000
29.1500 16.0000 1.0000
29.1600 14.0000 1.0000
29.1700 10.0000 1.0000
29.1800 20.0000 1.0000
29.1900 10.0000 1.0000
29.2000 15.0000 1.0000
29.2100 9.0000 1.0000
29.2200 11.0000 1.0000
29.2300 14.0000 1.0000
29.2400 14.0000 1.0000
29.2500 14.0000 1.0000
29.2600 17.0000 1.0000
29.2700 14.0000 1.0000
29.2800 15.0000 1.0000
29.2900 14.0000 1.0000
29.3000 13.0000 1.0000
29.3100 20.0000 1.0000
29.3200 12.0000 1.0000
29.3300 9.0000 1.0000
29.3400 12.0000 1.0000
29.3500 11.0000 1.0000
29.3600 12.0000 1.0000
29.3700 21.0000 1.0000
29.3800 9.0000 1.0000
29.3900 12.0000 1.0000
29.4000 11.0000 1.0000
29.4100 12.0000 1.0000
29.4200 12.0000 1.0000
29.4300 8.0000 1.0000
29.4400 23.0000 1.0000
29.4500 14.0000 1.0000
29.4600 13.0000 1.0000
29.4700 12.0000 1.0000
29.4800 15.0000 1.0000
29.4900 8.0000 1.0000
29.5000 11.0000 1.0000
29.5100 13.0000 1.0000
29.5200 15.0000 1.0000
29.5300 15.0000 1.0000
29.5400 13.0000 1.0000
29.5500 15.0000 1.0000
29.5600 14.0000 1.0000
29.5700 14.0000 1.0000
29.5800 13.0000 1.0000
29.5900 16.0000 1.0000
29.6000 10.0000 1.0000
29.6100 7.0000 1.0000
29.6200 9.0000 1.0000
29.6300 13.0000 1.0000
29.6400 11.0000 1.0000
29.6500 10.0000 1.0000
29.6600 7.0000 1.0000
29.6700 13.0000 1.0000
29.6800 17.0000 1.0000
29.6900 7.0000 1.0000
29.7000 12.0000 1.0000
29.7100 8.0000 1.0000
29.7200 21.0000 1.0000
29.7300 13.0000 1.0000
29.7400 17.0000 1.0000
29.7500 11.0000 1.0000
29.7600 6.0000 1.0000
29.7700 18.0000 1.0000
29.7800 6.0000 1.0000
29.7900 14.0000 1.0000
29.8000 5.0000 1.0000
29.8100 13.0000 1.0000
29.8200 5.0000 1.0000
29.8300 11.0000 1.0000
29.8400 12.0000 1.0000
29.8500 10.0000 1.0000
29.8600 5.0000 1.0000
29.8700 12.0000 1.0000
29.8800 13.0000 1.0000
29.8900 10.0000 1.0000
29.9000 11.0000 1.0000
29.9100 11.0000 1.0000
29.9200 22.0000 1.0000
29.9300 15.0000 1.0000
29.9400 13.0000 1.0000
29.9500 15.0000 1.0000
29.9600 16.0000 1.0000
29.9700 11.0000 1.0000
29.9800 13.0000 1.0000
29.9900 12.0000 1.0000
30.0000 16.0000 1.0000
30.0100 12.0000 1.0000
30.0200 14.0000 1.0000
30.0300 6.0000 1.0000
30.0400 15.0000 1.0000
30.0500 11.0000 1.0000
30.0600 13.0000 1.0000
30.0700 9.0000 1.0000
30.0800 16.0000 1.0000
30.0900 17.0000 1.0000
30.1000 7.0000 1.0000
30.1100 14.0000 1.0000
30.1200 17.0000 1.0000
30.1300 15.0000 1.0000
30.1400 11.0000 1.0000
30.1500 11.0000 1.0000
30.1600 10.0000 1.0000
30.1700 12.0000 1.0000
30.1800 15.0000 1.0000
30.1900 9.0000 1.0000
30.2000 12.0000 1.0000
30.2100 9.0000 1.0000
30.2200 11.0000 1.0000
30.2300 14.0000 1.0000
30.2400 11.0000 1.0000
30.2500 11.0000 1.0000
30.2600 11.0000 1.0000
30.2700 17.0000 1.0000
30.2800 10.0000 1.0000
30.2900 10.0000 1.0000
30.3000 9.0000 1.0000
30.3100 11.0000 1.0000
30.3200 15.0000 1.0000
30.3300 8.0000 1.0000
30.3400 11.0000 1.0000
30.3500 6.0000 1.0000
30.3600 12.0000 1.0000
30.3700 11.0000 1.0000
30.3800 14.0000 1.0000
30.3900 12.0000 1.0000
30.4000 16.0000 1.0000
30.4100 12.0000 1.0000
30.4200 14.0000 1.0000
30.4300 11.0000 1.0000
30.4400 15.0000 1.0000
30.4500 14.0000 1.0000
30.4600 14.0000 1.0000
30.4700 18.0000 1.0000
30.4800 12.0000 1.0000
30.4900 18.0000 1.0000
30.5000 13.0000 1.0000
30.5100 14.0000 1.0000
30.5200 20.0000 1.0000
30.5300 11.0000 1.0000
30.5400 17.0000 1.0000
30.5500 14.0000 1.0000
30.5600 14.0000 1.0000
30.5700 7.0000 1.0000
30.5800 13.0000 1.0000
30.5900 18.0000 1.0000
30.6000 7.0000 1.0000
30.6100 16.0000 1.0000
30.6200 18.0000 1.0000
30.6300 12.0000 1.0000
30.6400 8.0000 1.0000
30.6500 12.0000 1.0000
30.6600 8.0000 1.0000
30.6700 8.0000 1.0000
30.6800 18.0000 1.0000
30.6900 12.0000 1.0000
30.7000 7.0000 1.0000
30.7100 9.0000 1.0000
30.7200 11.0000 1.0000
30.7300 10.0000 1.0000
30.7400 12.0000 1.0000
30.7500 16.0000 1.0000
30.7600 13.0000 1.0000
30.7700 10.0000 1.0000
30.7800 16.0000 1.0000
30.7900 9.0000 1.0000
30.8000 8.0000 1.0000
30.8100 13.0000 1.0000
30.8200 11.0000 1.0000
30.8300 15.0000 1.0000
30.8400 15.0000 1.0000
30.8500 26.0000 1.0000
30.8600 12.0000 1.0000
30.8700 10.0000 1.0000
30.8800 14.0000 1.0000
30.8900 7.0000 1.0000
30.9000 11.0000 1.0000
30.9100 10.0000 1.0000
30.9200 16.0000 1.0000
30.9300 9.0000 1.0000
30.9400 7.0000 1.0000
30.9500 10.0000 1.0000
30.9600 12.0000 1.0000
30.9700 16.0000 1.0000
30.9800 13.0000 1.0000
30.9900 9.0000 1.0000
31.0000 8.0000 1.0000
31.0100 6.0000 1.0000
31.0200 11.0000 1.0000
31.0300 12.0000 1.0000
31.0400 16.0000 1.0000
31.0500 12.0000 1.0000
31.0600 9.0000 1.0000
31.0700 11.0000 1.0000
31.0800 4.0000 1.0000
31.0900 14.0000 1.0000
31.1000 12.0000 1.0000
31.1100 16.0000 1.0000
31.1200 14.0000 1.0000
31.1300 14.0000 1.0000
31.1400 9.0000 1.0000
31.1500 10.0000 1.0000
31.1600 9.0000 1.0000
31.1700 12.0000 1.0000
31.1800 11.0000 1.0000
31.1900 16.0000 1.0000
31.2000 4.0000 1.0000
31.2100 16.0000 1.0000
31.2200 9.0000 1.0000
31.2300 14.0000 1.0000
31.2400 14.0000 1.0000
31.2500 14.0000 1.0000
31.2600 16.0000 1.0000
31.2700 9.0000 1.0000
31.2800 25.0000 1.0000
31.2900 17.0000 1.0000
31.3000 9.0000 1.0000
31.3100 13.0000 1.0000
31.3200 17.0000 1.0000
31.3300 13.0000 1.0000
31.3400 12.0000 1.0000
31.3500 10.0000 1.0000
31.3600 13.0000 1.0000
31.3700 12.0000 1.0000
31.3800 10.0000 1.0000
31.3900 8.0000 1.0000
31.4000 20.0000 1.0000
31.4100 8.0000 1.0000
31.4200 14.0000 1.0000
31.4300 9.0000 1.0000
31.4400 12.0000 1.0000
31.4500 10.0000 1.0000
31.4600 14.0000 1.0000
31.4700 12.0000 1.0000
31.4800 7.0000 1.0000
31.4900 7.0000 1.0000
31.5000 17.0000 1.0000
31.5100 12.0000 1.0000
31.5200 7.0000 1.0000
31.5300 11.0000 1.0000
31.5400 20.0000 1.0000
31.5500 8.0000 1.0000
31.5600 16.0000 1.0000
31.5700 11.0000 1.0000
31.5800 11.0000 1.0000
31.5900 11.0000 1.0000
31.6000 17.0000 1.0000
31.6100 10.0000 1.0000
31.6200 10.0000 1.0000
31.6300 11.0000 1.0000
31.6400 20.0000 1.0000
31.6500 15.0000 1.0000
31.6600 7.0000 1.0000
31.6700 16.0000 1.0000
31.6800 13.0000 1.0000
31.6900 11.0000 1.0000
31.7000 9.0000 1.0000
31.7100 15.0000 1.0000
31.7200 9.0000 1.0000
31.7300 20.0000 1.0000
31.7400 22.0000 1.0000
31.7500 10.0000 1.0000
31.7600 10.0000 1.0000
31.7700 11.0000 1.0000
31.7800 13.0000 1.0000
31.7900 16.0000 1.0000
31.8000 13.0000 1.0000
31.8100 14.0000 1.0000
31.8200 12.0000 1.0000
31.8300 14.0000 1.0000
31.8400 10.0000 1.0000
31.8500 11.0000 1.0000
31.8600 13.0000 1.0000
31.8700 16.0000 1.0000
31.8800 7.0000 1.0000
31.8900 17.0000 1.0000
31.9000 11.0000 1.0000
31.9100 6.0000 1.0000
31.9200 15.0000 1.0000
31.9300 11.0000 1.0000
31.9400 13.0000 1.0000
31.9500 10.0000 1.0000
31.9600 16.0000 1.0000
31.9700 12.0000 1.0000
31.9800 12.0000 1.0000
31.9900 16.0000 1.0000
32.0000 17.0000 1.0000
32.0100 14.0000 1.0000
32.0200 9.0000 1.0000
32.0300 8.0000 1.0000
32.0400 14.0000 1.0000
32.0500 13.0000 1.0000
32.0600 5.0000 1.0000
32.0700 14.0000 1.0000
32.0800 16.0000 1.0000
32.0900 14.0000 1.0000
32.1000 8.0000 1.0000
32.1100 16.0000 1.0000
32.1200 21.0000 1.0000
32.1300 14.0000 1.0000
32.1400 10.0000 1.0000
32.1500 14.0000 1.0000
32.1600 12.0000 1.0000
32.1700 17.0000 1.0000
32.1800 13.0000 1.0000
32.1900 13.0000 1.0000
32.2000 15.0000 1.0000
32.2100 12.0000 1.0000
32.2200 17.0000 1.0000
32.2300 13.0000 1.0000
32.2400 17.0000 1.0000
32.2500 11.0000 1.0000
32.2600 11.0000 1.0000
32.2700 12.0000 1.0000
32.2800 17.0000 1.0000
32.2900 10.0000 1.0000
32.3000 16.0000 1.0000
32.3100 14.0000 1.0000
32.3200 14.0000 1.0000
32.3300 15.0000 1.0000
32.3400 6.0000 1.0000
32.3500 24.0000 1.0000
32.3600 11.0000 1.0000
32.3700 15.0000 1.0000
32.3800 13.0000 1.0000
32.3900 12.0000 1.0000
32.4000 7.0000 1.0000
32.4100 21.0000 1.0000
32.4200 10.0000 1.0000
32.4300 10.0000 1.0000
32.4400 6.0000 1.0000
32.4500 17.0000 1.0000
32.4600 16.0000 1.0000
32.4700 12.0000 1.0000
32.4800 11.0000 1.0000
32.4900 15.0000 1.0000
32.5000 15.0000 1.0000
32.5100 15.0000 1.0000
32.5200 20.0000 1.0000
32.5300 10.0000 1.0000
32.5400 10.0000 1.0000
32.5500 19.0000 1.0000
32.5600 9.0000 1.0000
32.5700 10.0000 1.0000
32.5800 11.0000 1.0000
32.5900 10.0000 1.0000
32.6000 15.0000 1.0000
32.6100 15.0000 1.0000
32.6200 13.0000 1.0000
32.6300 14.0000 1.0000
32.6400 16.0000 1.0000
32.6500 10.0000 1.0000
32.6600 10.0000 1.0000
32.6700 14.0000 1.0000
32.6800 13.0000 1.0000
32.6900 11.0000 1.0000
32.7000 6.0000 1.0000
32.7100 8.0000 1.0000
32.7200 8.0000 1.0000
32.7300 11.0000 1.0000
32.7400 23.0000 1.0000
32.7500 18.0000 1.0000
32.7600 12.0000 1.0000
32.7700 17.0000 1.0000
32.7800 11.0000 1.0000
32.7900 16.0000 1.0000
32.8000 10.0000 1.0000
32.8100 5.0000 1.0000
32.8200 14.0000 1.0000
32.8300 16.0000 1.0000
32.8400 9.0000 1.0000
32.8500 12.0000 1.0000
32.8600 15.0000 1.0000
32.8700 11.0000 1.0000
32.8800 10.0000 1.0000
32.8900 10.0000 1.0000
32.9000 8.0000 1.0000
32.9100 15.0000 1.0000
32.9200 15.0000 1.0000
32.9300 8.0000 1.0000
32.9400 14.0000 1.0000
32.9500 18.0000 1.0000
32.9600 13.0000 1.0000
32.9700 16.0000 1.0000
32.9800 14.0000 1.0000
32.9900 16.0000 1.0000
33.0000 10.0000 1.0000
33.0100 11.0000 1.0000
33.0200 15.0000 1.0000
33.0300 12.0000 1.0000
33.0400 16.0000 1.0000
33.0500 14.0000 1.0000
33.0600 12.0000 1.0000
33.0700 18.0000 1.0000
33.0800 3.0000 1.0000
33.0900 13.0000 1.0000
33.1000 14.0000 1.0000
33.1100 13.0000 1.0000
33.1200 12.0000 1.0000
33.1300 15.0000 1.0000
33.1400 17.0000 1.0000
33.1500 11.0000 1.0000
33.1600 8.0000 1.0000
33.1700 13.0000 1.0000
33.1800 12.0000 1.0000
33.1900 7.0000 1.0000
33.2000 12.0000 1.0000
33.2100 14.0000 1.0000
33.2200 11.0000 1.0000
33.2300 11.0000 1.0000
33.2400 16.0000 1.0000
33.2500 16.0000 1.0000
33.2600 15.0000 1.0000
33.2700 8.0000 1.0000
33.2800 5.0000 1.0000
33.2900 14.0000 1.0000
33.3000 15.0000 1.0000
33.3100 19.0000 1.0000
33.3200 13.0000 1.0000
33.3300 6.0000 1.0000
33.3400 10.0000 1.0000
33.3500 14.0000 1.0000
33.3600 6.0000 1.0000
33.3700 6.0000 1.0000
33.3800 6.0000 1.0000
33.3900 10.0000 1.0000
33.4000 7.0000 1.0000
33.4100 10.0000 1.0000
33.4200 13.0000 1.0000
33.4300 12.0000 1.0000
33.4400 11.0000 1.0000
33.4500 7.0000 1.0000
33.4600 13.0000 1.0000
33.4700 6.0000 1.0000
33.4800 13.0000 1.0000
33.4900 10.0000 1.0000
33.5000 16.0000 1.0000
33.5100 10.0000 1.0000
33.5200 12.0000 1.0000
33.5300 15.0000 1.0000
33.5400 16.0000 1.0000
33.5500 10.0000 1.0000
33.5600 11.0000 1.0000
33.5700 10.0000 1.0000
33.5800 12.0000 1.0000
33.5900 13.0000 1.0000
33.6000 10.0000 1.0000
33.6100 10.0000 1.0000
33.6200 14.0000 1.0000
33.6300 16.0000 1.0000
33.6400 5.0000 1.0000
33.6500 15.0000 1.0000
33.6600 17.0000 1.0000
33.6700 10.0000 1.0000
33.6800 7.0000 1.0000
33.6900 6.0000 1.0000
33.7000 9.0000 1.0000
33.7100 15.0000 1.0000
33.7200 12.0000 1.0000
33.7300 7.0000 1.0000
33.7400 17.0000 1.0000
33.7500 13.0000 1.0000
33.7600 14.0000 1.0000
33.7700 6.0000 1.0000
33.7800 9.0000 1.0000
33.7900 14.0000 1.0000
33.8000 19.0000 1.0000
33.8100 13.0000 1.0000
33.8200 13.0000 1.0000
33.8300 12.0000 1.0000
33.8400 10.0000 1.0000
33.8500 11.0000 1.0000
33.8600 13.0000 1.0000
33.8700 12.0000 1.0000
33.8800 11.0000 1.0000
33.8900 16.0000 1.0000
33.9000 11.0000 1.0000
33.9100 16.0000 1.0000
33.9200 19.0000 1.0000
33.9300 14.0000 1.0000
33.9400 11.0000 1.0000
33.9500 11.0000 1.0000
33.9600 16.0000 1.0000
33.9700 14.0000 1.0000
33.9800 11.0000 1.0000
33.9900 16.0000 1.0000
34.0000 15.0000 1.0000
34.0100 14.0000 1.0000
34.0200 4.0000 1.0000
34.0300 12.0000 1.0000
34.0400 12.0000 1.0000
34.0500 20.0000 1.0000
34.0600 11.0000 1.0000
34.0700 12.0000 1.0000
34.0800 14.0000 1.0000
34.0900 19.0000 1.0000
34.1000 11.0000 1.0000
34.1100 8.0000 1.0000
34.1200 8.0000 1.0000
34.1300 15.0000 1.0000
34.1400 11.0000 1.0000
34.1500 8.0000 1.0000
34.1600 7.0000 1.0000
34.1700 10.0000 1.0000
34.1800 15.0000 1.0000
34.1900 17.0000 1.0000
34.2000 13.0000 1.0000
34.2100 11.0000 1.0000
34.2200 7.0000 1.0000
34.2300 9.0000 1.0000
34.2400 14.0000 1.0000
34.2500 7.0000 1.0000
34.2600 13.0000 1.0000
34.2700 11.0000 1.0000
34.2800 13.0000 1.0000
34.2900 8.0000 1.0000
34.3000 6.0000 1.0000
34.3100 12.0000 1.0000
34.3200 8.0000 1.0000
34.3300 11.0000 1.0000
34.3400 18.0000 1.0000
34.3500 14.0000 1.0000
34.3600 10.0000 1.0000
34.3700 17.0000 1.0000
34.3800 13.0000 1.0000
34.3900 17.0000 1.0000
34.4000 11.0000 1.0000
34.4100 12.0000 1.0000
34.4200 18.0000 1.0000
34.4300 11.0000 1.0000
34.4400 9.0000 1.0000
34.4500 7.0000 1.0000
34.4600 16.0000 1.0000
34.4700 10.0000 1.0000
34.4800 12.0000 1.0000
34.4900 14.0000 1.0000
34.5000 12.0000 1.0000
34.5100 11.0000 1.0000
34.5200 13.0000 1.0000
34.5300 15.0000 1.0000
34.5400 11.0000 1.0000
34.5500 12.0000 1.0000
34.5600 11.0000 1.0000
34.5700 16.0000 1.0000
34.5800 9.0000 1.0000
34.5900 12.0000 1.0000
34.6000 13.0000 1.0000
34.6100 9.0000 1.0000
34.6200 11.0000 1.0000
34.6300 18.0000 1.0000
34.6400 7.0000 1.0000
34.6500 8.0000 1.0000
34.6600 7.0000 1.0000
34.6700 16.0000 1.0000
34.6800 19.0000 1.0000
34.6900 9.0000 1.0000
34.7000 8.0000 1.0000
34.7100 17.0000 1.0000
34.7200 13.0000 1.0000
34.7300 5.0000 1.0000
34.7400 15.0000 1.0000
34.7500 9.0000 1.0000
34.7600 17.0000 1.0000
34.7700 11.0000 1.0000
34.7800 8.0000 1.0000
34.7900 7.0000 1.0000
34.8000 18.0000 1.0000
34.8100 11.0000 1.0000
34.8200 11.0000 1.0000
34.8300 13.0000 1.0000
34.8400 11.0000 1.0000
34.8500 14.0000 1.0000
34.8600 6.0000 1.0000
34.8700 8.0000 1.0000
34.8800 10.0000 1.0000
34.8900 6.0000 1.0000
34.9000 14.0000 1.0000
34.9100 10.0000 1.0000
34.9200 19.0000 1.0000
34.9300 12.0000 1.0000
34.9400 14.0000 1.0000
34.9500 10.0000 1.0000
34.9600 9.0000 1.0000
34.9700 15.0000 1.0000
34.9800 16.0000 1.0000
34.9900 17.0000 1.0000
35.0000 14.0000 1.0000
35.0100 9.0000 1.0000
35.0200 16.0000 1.0000
35.0300 16.0000 1.0000
35.0400 10.0000 1.0000
35.0500 8.0000 1.0000
35.0600 11.0000 1.0000
35.0700 13.0000 1.0000
35.0800 14.0000 1.0000
35.0900 11.0000 1.0000
35.1000 15.0000 1.0000
35.1100 14.0000 1.0000
35.1200 15.0000 1.0000
35.1300 9.0000 1.0000
35.1400 10.0000 1.0000
35.1500 14.0000 1.0000
35.1600 13.0000 1.0000
35.1700 19.0000 1.0000
35.1800 10.0000 1.0000
35.1900 11.0000 1.0000
35.2000 10.0000 1.0000
35.2100 11.0000 1.0000
35.2200 10.0000 1.0000
35.2300 12.0000 1.0000
35.2400 12.0000 1.0000
35.2500 12.0000 1.0000
35.2600 9.0000 1.0000
35.2700 10.0000 1.0000
35.2800 14.0000 1.0000
35.2900 16.0000 1.0000
35.3000 15.0000 1.0000
35.3100 11.0000 1.0000
35.3200 15.0000 1.0000
35.3300 21.0000 1.0000
35.3400 11.0000 1.0000
35.3500 10.0000 1.0000
35.3600 18.0000 1.0000
35.3700 6.0000 1.0000
35.3800 8.0000 1.0000
35.3900 13.0000 1.0000
35.4000 9.0000 1.0000
35.4100 9.0000 1.0000
35.4200 11.0000 1.0000
35.4300 11.0000 1.0000
35.4400 11.0000 1.0000
35.4500 12.0000 1.0000
35.4600 9.0000 1.0000
35.4700 15.0000 1.0000
35.4800 12.0000 1.0000
35.4900 14.0000 1.0000
35.5000 6.0000 1.0000
35.5100 7.0000 1.0000
35.5200 17.0000 1.0000
35.5300 14.0000 1.0000
35.5400 12.0000 1.0000
35.5500 21.0000 1.0000
35.5600 26.0000 1.0000
35.5700 7.0000 1.0000
35.5800 13.0000 1.0000
35.5900 16.0000 1.0000
35.6000 8.0000 1.0000
35.6100 16.0000 1.0000
35.6200 14.0000 1.0000
35.6300 13.0000 1.0000
35.6400 19.0000 1.0000
35.6500 9.0000 1.0000
35.6600 12.0000 1.0000
35.6700 12.0000 1.0000
35.6800 15.0000 1.0000
35.6900 20.0000 1.0000
35.7000 11.0000 1.0000
35.7100 11.0000 1.0000
35.7200 17.0000 1.0000
35.7300 9.0000 1.0000
35.7400 16.0000 1.0000
35.7500 12.0000 1.0000
35.7600 12.0000 1.0000
35.7700 14.0000 1.0000
35.7800 14.0000 1.0000
35.7900 11.0000 1.0000
35.8000 13.0000 1.0000
35.8100 8.0000 1.0000
35.8200 9.0000 1.0000
35.8300 11.0000 1.0000
35.8400 18.0000 1.0000
35.8500 12.0000 1.0000
35.8600 21.0000 1.0000
35.8700 16.0000 1.0000
35.8800 6.0000 1.0000
35.8900 12.0000 1.0000
35.9000 19.0000 1.0000
35.9100 12.0000 1.0000
35.9200 15.0000 1.0000
35.9300 14.0000 1.0000
35.9400 13.0000 1.0000
35.9500 7.0000 1.0000
35.9600 17.0000 1.0000
35.9700 13.0000 1.0000
35.9800 12.0000 1.0000
35.9900 12.0000 1.0000
36.0000 8.0000 1.0000
36.0100 19.0000 1.0000
36.0200 9.0000 1.0000
36.0300 10.0000 1.0000
36.0400 16.0000 1.0000
36.0500 13.0000 1.0000
36.0600 10.0000 1.0000
36.0700 11.0000 1.0000
36.0800 9.0000 1.0000
36.0900 18.0000 1.0000
36.1000 6.0000 1.0000
36.1100 8.0000 1.0000
36.1200 10.0000 1.0000
36.1300 11.0000 1.0000
36.1400 15.0000 1.0000
36.1500 17.0000 1.0000
36.1600 12.0000 1.0000
36.1700 19.0000 1.0000
36.1800 7.0000 1.0000
36.1900 10.0000 1.0000
36.2000 13.0000 1.0000
36.2100 11.0000 1.0000
36.2200 13.0000 1.0000
36.2300 11.0000 1.0000
36.2400 15.0000 1.0000
36.2500 9.0000 1.0000
36.2600 9.0000 1.0000
36.2700 14.0000 1.0000
36.2800 13.0000 1.0000
36.2900 9.0000 1.0000
36.3000 15.0000 1.0000
36.3100 10.0000 1.0000
36.3200 19.0000 1.0000
36.3300 9.0000 1.0000
36.3400 9.0000 1.0000
36.3500 12.0000 1.0000
36.3600 21.0000 1.0000
36.3700 13.0000 1.0000
36.3800 10.0000 1.0000
36.3900 10.0000 1.0000
36.4000 6.0000 1.0000
36.4100 11.0000 1.0000
36.4200 15.0000 1.0000
36.4300 15.0000 1.0000
36.4400 10.0000 1.0000
36.4500 15.0000 1.0000
36.4600 15.0000 1.0000
36.4700 9.0000 1.0000
36.4800 13.0000 1.0000
36.4900 10.0000 1.0000
36.5000 12.0000 1.0000
36.5100 6.0000 1.0000
36.5200 15.0000 1.0000
36.5300 10.0000 1.0000
36.5400 14.0000 1.0000
36.5500 11.0000 1.0000
36.5600 6.0000 1.0000
36.5700 11.0000 1.0000
36.5800 6.0000 1.0000
36.5900 9.0000 1.0000
36.6000 11.0000 1.0000
36.6100 12.0000 1.0000
36.6200 15.0000 1.0000
36.6300 6.0000 1.0000
36.6400 14.0000 1.0000
36.6500 15.0000 1.0000
36.6600 16.0000 1.0000
36.6700 8.0000 1.0000
36.6800 7.0000 1.0000
36.6900 9.0000 1.0000
36.7000 8.0000 1.0000
36.7100 12.0000 1.0000
36.7200 9.0000 1.0000
36.7300 14.0000 1.0000
36.7400 7.0000 1.0000
36.7500 18.0000 1.0000
36.7600 15.0000 1.0000
36.7700 11.0000 1.0000
36.7800 12.0000 1.0000
36.7900 12.0000 1.0000
36.8000 5.0000 1.0000
36.8100 12.0000 1.0000
36.8200 15.0000 1.0000
36.8300 9.0000 1.0000
36.8400 5.0000 1.0000
36.8500 5.0000 1.0000
36.8600 10.0000 1.0000
36.8700 12.0000 1.0000
36.8800 13.0000 1.0000
36.8900 21.0000 1.0000
36.9000 12.0000 1.0000
36.9100 16.0000 1.0000
36.9200 16.0000 1.0000
36.9300 7.0000 1.0000
36.9400 14.0000 1.0000
36.9500 21.0000 1.0000
36.9600 11.0000 1.0000
36.9700 16.0000 1.0000
36.9800 19.0000 1.0000
36.9900 13.0000 1.0000
37.0000 12.0000 1.0000
37.0100 7.0000 1.0000
37.0200 12.0000 1.0000
37.0300 15.0000 1.0000
37.0400 15.0000 1.0000
37.0500 18.0000 1.0000
37.0600 9.0000 1.0000
37.0700 15.0000 1.0000
37.0800 10.0000 1.0000
37.0900 17.0000 1.0000
37.1000 9.0000 1.0000
37.1100 11.0000 1.0000
37.1200 14.0000 1.0000
37.1300 17.0000 1.0000
37.1400 21.0000 1.0000
37.1500 13.0000 1.0000
37.1600 14.0000 1.0000
37.1700 13.0000 1.0000
37.1800 13.0000 1.0000
37.1900 11.0000 1.0000
37.2000 16.0000 1.0000
37.2100 8.0000 1.0000
37.2200 10.0000 1.0000
37.2300 18.0000 1.0000
37.2400 10.0000 1.0000
37.2500 12.0000 1.0000
37.2600 12.0000 1.0000
37.2700 15.0000 1.0000
37.2800 12.0000 1.0000
37.2900 9.0000 1.0000
37.3000 14.0000 1.0000
37.3100 19.0000 1.0000
37.3200 15.0000 1.0000
37.3300 14.0000 1.0000
37.3400 18.0000 1.0000
37.3500 14.0000 1.0000
37.3600 13.0000 1.0000
37.3700 15.0000 1.0000
37.3800 9.0000 1.0000
37.3900 13.0000 1.0000
37.4000 13.0000 1.0000
37.4100 17.0000 1.0000
37.4200 13.0000 1.0000
37.4300 13.0000 1.0000
37.4400 13.0000 1.0000
37.4500 6.0000 1.0000
37.4600 15.0000 1.0000
37.4700 13.0000 1.0000
37.4800 15.0000 1.0000
37.4900 11.0000 1.0000
37.5000 20.0000 1.0000
37.5100 12.0000 1.0000
37.5200 12.0000 1.0000
37.5300 12.0000 1.0000
37.5400 11.0000 1.0000
37.5500 11.0000 1.0000
37.5600 7.0000 1.0000
37.5700 18.0000 1.0000
37.5800 10.0000 1.0000
37.5900 15.0000 1.0000
37.6000 19.0000 1.0000
37.6100 10.0000 1.0000
37.6200 13.0000 1.0000
37.6300 10.0000 1.0000
37.6400 11.0000 1.0000
37.6500 11.0000 1.0000
37.6600 15.0000 1.0000
37.6700 14.0000 1.0000
37.6800 19.0000 1.0000
37.6900 17.0000 1.0000
37.7000 11.0000 1.0000
37.7100 19.0000 1.0000
37.7200 7.0000 1.0000
37.7300 17.0000 1.0000
37.7400 12.0000 1.0000
37.7500 14.0000 1.0000
37.7600 7.0000 1.0000
37.7700 18.0000 1.0000
37.7800 8.0000 1.0000
37.7900 12.0000 1.0000
37.8000 11.0000 1.0000
37.8100 11.0000 1.0000
37.8200 11.0000 1.0000
37.8300 12.0000 1.0000
37.8400 15.0000 1.0000
37.8500 14.0000 1.0000
37.8600 16.0000 1.0000
37.8700 11.0000 1.0000
37.8800 17.0000 1.0000
37.8900 16.0000 1.0000
37.9000 11.0000 1.0000
37.9100 10.0000 1.0000
37.9200 16.0000 1.0000
37.9300 8.0000 1.0000
37.9400 11.0000 1.0000
37.9500 12.0000 1.0000
37.9600 14.0000 1.0000
37.9700 22.0000 1.0000
37.9800 7.0000 1.0000
37.9900 13.0000 1.0000
38.0000 14.0000 1.0000
38.0100 15.0000 1.0000
38.0200 12.0000 1.0000
38.0300 17.0000 1.0000
38.0400 18.0000 1.0000
38.0500 13.0000 1.0000
38.0600 19.0000 1.0000
38.0700 14.0000 1.0000
38.0800 13.0000 1.0000
38.0900 16.0000 1.0000
38.1000 18.0000 1.0000
38.1100 11.0000 1.0000
38.1200 19.0000 1.0000
38.1300 22.0000 1.0000
38.1400 17.0000 1.0000
38.1500 15.0000 1.0000
38.1600 21.0000 1.0000
38.1700 7.0000 1.0000
38.1800 8.0000 1.0000
38.1900 18.0000 1.0000
38.2000 19.0000 1.0000
38.2100 11.0000 1.0000
38.2200 19.0000 1.0000
38.2300 21.0000 1.0000
38.2400 13.0000 1.0000
38.2500 14.0000 1.0000
38.2600 14.0000 1.0000
38.2700 17.0000 1.0000
38.2800 14.0000 1.0000
38.2900 8.0000 1.0000
38.3000 13.0000 1.0000
38.3100 16.0000 1.0000
38.3200 9.0000 1.0000
38.3300 18.0000 1.0000
38.3400 16.0000 1.0000
38.3500 10.0000 1.0000
38.3600 21.0000 1.0000
38.3700 13.0000 1.0000
38.3800 11.0000 1.0000
38.3900 12.0000 1.0000
38.4000 15.0000 1.0000
38.4100 11.0000 1.0000
38.4200 11.0000 1.0000
38.4300 9.0000 1.0000
38.4400 27.0000 1.0000
38.4500 14.0000 1.0000
38.4600 13.0000 1.0000
38.4700 9.0000 1.0000
38.4800 9.0000 1.0000
38.4900 9.0000 1.0000
38.5000 15.0000 1.0000
38.5100 17.0000 1.0000
38.5200 18.0000 1.0000
38.5300 17.0000 1.0000
38.5400 15.0000 1.0000
38.5500 15.0000 1.0000
38.5600 23.0000 1.0000
38.5700 17.0000 1.0000
38.5800 14.0000 1.0000
38.5900 12.0000 1.0000
38.6000 16.0000 1.0000
38.6100 18.0000 1.0000
38.6200 16.0000 1.0000
38.6300 13.0000 1.0000
38.6400 14.0000 1.0000
38.6500 6.0000 1.0000
38.6600 22.0000 1.0000
38.6700 15.0000 1.0000
38.6800 15.0000 1.0000
38.6900 13.0000 1.0000
38.7000 15.0000 1.0000
38.7100 15.0000 1.0000
38.7200 14.0000 1.0000
38.7300 15.0000 1.0000
38.7400 14.0000 1.0000
38.7500 10.0000 1.0000
38.7600 8.0000 1.0000
38.7700 16.0000 1.0000
38.7800 16.0000 1.0000
38.7900 11.0000 1.0000
38.8000 14.0000 1.0000
38.8100 16.0000 1.0000
38.8200 14.0000 1.0000
38.8300 16.0000 1.0000
38.8400 9.0000 1.0000
38.8500 19.0000 1.0000
38.8600 10.0000 1.0000
38.8700 16.0000 1.0000
38.8800 12.0000 1.0000
38.8900 16.0000 1.0000
38.9000 17.0000 1.0000
38.9100 13.0000 1.0000
38.9200 19.0000 1.0000
38.9300 21.0000 1.0000
38.9400 21.0000 1.0000
38.9500 17.0000 1.0000
38.9600 16.0000 1.0000
38.9700 16.0000 1.0000
38.9800 12.0000 1.0000
38.9900 15.0000 1.0000
39.0000 16.0000 1.0000
39.0100 15.0000 1.0000
39.0200 19.0000 1.0000
39.0300 10.0000 1.0000
39.0400 15.0000 1.0000
39.0500 15.0000 1.0000
39.0600 15.0000 1.0000
39.0700 16.0000 1.0000
39.0800 17.0000 1.0000
39.0900 18.0000 1.0000
39.1000 17.0000 1.0000
39.1100 19.0000 1.0000
39.1200 26.0000 1.0000
39.1300 14.0000 1.0000
39.1400 15.0000 1.0000
39.1500 15.0000 1.0000
39.1600 17.0000 1.0000
39.1700 24.0000 1.0000
39.1800 11.0000 1.0000
39.1900 17.0000 1.0000
39.2000 8.0000 1.0000
39.2100 16.0000 1.0000
39.2200 16.0000 1.0000
39.2300 24.0000 1.0000
39.2400 9.0000 1.0000
39.2500 17.0000 1.0000
39.2600 16.0000 1.0000
39.2700 9.0000 1.0000
39.2800 12.0000 1.0000
39.2900 13.0000 1.0000
39.3000 19.0000 1.0000
39.3100 12.0000 1.0000
39.3200 10.0000 1.0000
39.3300 14.0000 1.0000
39.3400 16.0000 1.0000
39.3500 16.0000 1.0000
39.3600 18.0000 1.0000
39.3700 15.0000 1.0000
39.3800 9.0000 1.0000
39.3900 16.0000 1.0000
39.4000 9.0000 1.0000
39.4100 19.0000 1.0000
39.4200 11.0000 1.0000
39.4300 20.0000 1.0000
39.4400 11.0000 1.0000
39.4500 19.0000 1.0000
39.4600 13.0000 1.0000
39.4700 12.0000 1.0000
39.4800 16.0000 1.0000
39.4900 18.0000 1.0000
39.5000 20.0000 1.0000
39.5100 13.0000 1.0000
39.5200 13.0000 1.0000
39.5300 16.0000 1.0000
39.5400 19.0000 1.0000
39.5500 15.0000 1.0000
39.5600 11.0000 1.0000
39.5700 8.0000 1.0000
39.5800 13.0000 1.0000
39.5900 13.0000 1.0000
39.6000 7.0000 1.0000
39.6100 17.0000 1.0000
39.6200 22.0000 1.0000
39.6300 21.0000 1.0000
39.6400 17.0000 1.0000
39.6500 15.0000 1.0000
39.6600 14.0000 1.0000
39.6700 17.0000 1.0000
39.6800 17.0000 1.0000
39.6900 10.0000 1.0000
39.7000 17.0000 1.0000
39.7100 16.0000 1.0000
39.7200 18.0000 1.0000
39.7300 19.0000 1.0000
39.7400 24.0000 1.0000
39.7500 22.0000 1.0000
39.7600 15.0000 1.0000
39.7700 15.0000 1.0000
39.7800 16.0000 1.0000
39.7900 13.0000 1.0000
39.8000 11.0000 1.0000
39.8100 14.0000 1.0000
39.8200 25.0000 1.0000
39.8300 19.0000 1.0000
39.8400 19.0000 1.0000
39.8500 11.0000 1.0000
39.8600 22.0000 1.0000
39.8700 15.0000 1.0000
39.8800 17.0000 1.0000
39.8900 12.0000 1.0000
39.9000 10.0000 1.0000
39.9100 17.0000 1.0000
39.9200 22.0000 1.0000
39.9300 12.0000 1.0000
39.9400 9.0000 1.0000
39.9500 13.0000 1.0000
39.9600 17.0000 1.0000
39.9700 23.0000 1.0000
39.9800 16.0000 1.0000
39.9900 21.0000 1.0000
40.0000 16.0000 1.0000
40.0100 13.0000 1.0000
40.0200 13.0000 1.0000
40.0300 21.0000 1.0000
40.0400 18.0000 1.0000
40.0500 18.0000 1.0000
40.0600 17.0000 1.0000
40.0700 11.0000 1.0000
40.0800 15.0000 1.0000
40.0900 19.0000 1.0000
40.1000 29.0000 1.0000
40.1100 15.0000 1.0000
40.1200 23.0000 1.0000
40.1300 14.0000 1.0000
40.1400 11.0000 1.0000
40.1500 20.0000 1.0000
40.1600 16.0000 1.0000
40.1700 17.0000 1.0000
40.1800 23.0000 1.0000
40.1900 17.0000 1.0000
40.2000 13.0000 1.0000
40.2100 19.0000 1.0000
40.2200 19.0000 1.0000
40.2300 23.0000 1.0000
40.2400 23.0000 1.0000
40.2500 16.0000 1.0000
40.2600 19.0000 1.0000
40.2700 16.0000 1.0000
40.2800 15.0000 1.0000
40.2900 19.0000 1.0000
40.3000 18.0000 1.0000
40.3100 17.0000 1.0000
40.3200 19.0000 1.0000
40.3300 20.0000 1.0000
40.3400 31.0000 1.0000
40.3500 16.0000 1.0000
40.3600 15.0000 1.0000
40.3700 26.0000 1.0000
40.3800 21.0000 1.0000
40.3900 13.0000 1.0000
40.4000 14.0000 1.0000
40.4100 20.0000 1.0000
40.4200 14.0000 1.0000
40.4300 13.0000 1.0000
40.4400 19.0000 1.0000
40.4500 15.0000 1.0000
40.4600 16.0000 1.0000
40.4700 18.0000 1.0000
40.4800 17.0000 1.0000
40.4900 15.0000 1.0000
40.5000 31.0000 1.0000
40.5100 19.0000 1.0000
40.5200 10.0000 1.0000
40.5300 22.0000 1.0000
40.5400 10.0000 1.0000
40.5500 10.0000 1.0000
40.5600 13.0000 1.0000
40.5700 13.0000 1.0000
40.5800 17.0000 1.0000
40.5900 22.0000 1.0000
40.6000 14.0000 1.0000
40.6100 15.0000 1.0000
40.6200 18.0000 1.0000
40.6300 22.0000 1.0000
40.6400 20.0000 1.0000
40.6500 15.0000 1.0000
40.6600 9.0000 1.0000
40.6700 18.0000 1.0000
40.6800 15.0000 1.0000
40.6900 18.0000 1.0000
40.7000 12.0000 1.0000
40.7100 24.0000 1.0000
40.7200 19.0000 1.0000
40.7300 19.0000 1.0000
40.7400 24.0000 1.0000
40.7500 17.0000 1.0000
40.7600 19.0000 1.0000
40.7700 14.0000 1.0000
40.7800 16.0000 1.0000
40.7900 14.0000 1.0000
40.8000 10.0000 1.0000
40.8100 15.0000 1.0000
40.8200 16.0000 1.0000
40.8300 20.0000 1.0000
40.8400 13.0000 1.0000
40.8500 22.0000 1.0000
40.8600 12.0000 1.0000
40.8700 20.0000 1.0000
40.8800 26.0000 1.0000
40.8900 20.0000 1.0000
40.9000 25.0000 1.0000
40.9100 16.0000 1.0000
40.9200 16.0000 1.0000
40.9300 18.0000 1.0000
40.9400 20.0000 1.0000
40.9500 15.0000 1.0000
40.9600 17.0000 1.0000
40.9700 23.0000 1.0000
40.9800 14.0000 1.0000
40.9900 17.0000 1.0000
41.0000 23.0000 1.0000
41.0100 10.0000 1.0000
41.0200 23.0000 1.0000
41.0300 19.0000 1.0000
41.0400 14.0000 1.0000
41.0500 28.0000 1.0000
41.0600 17.0000 1.0000
41.0700 19.0000 1.0000
41.0800 11.0000 1.0000
41.0900 17.0000 1.0000
41.1000 13.0000 1.0000
41.1100 20.0000 1.0000
41.1200 20.0000 1.0000
41.1300 22.0000 1.0000
41.1400 20.0000 1.0000
41.1500 14.0000 1.0000
41.1600 16.0000 1.0000
41.1700 23.0000 1.0000
41.1800 20.0000 1.0000
41.1900 17.0000 1.0000
41.2000 18.0000 1.0000
41.2100 12.0000 1.0000
41.2200 18.0000 1.0000
41.2300 24.0000 1.0000
41.2400 13.0000 1.0000
41.2500 24.0000 1.0000
41.2600 16.0000 1.0000
41.2700 14.0000 1.0000
41.2800 19.0000 1.0000
41.2900 17.0000 1.0000
41.3000 21.0000 1.0000
41.3100 21.0000 1.0000
41.3200 23.0000 1.0000
41.3300 23.0000 1.0000
41.3400 21.0000 1.0000
41.3500 17.0000 1.0000
41.3600 23.0000 1.0000
41.3700 16.0000 1.0000
41.3800 28.0000 1.0000
41.3900 17.0000 1.0000
41.4000 22.0000 1.0000
41.4100 21.0000 1.0000
41.4200 20.0000 1.0000
41.4300 21.0000 1.0000
41.4400 14.0000 1.0000
41.4500 14.0000 1.0000
41.4600 29.0000 1.0000
41.4700 33.0000 1.0000
41.4800 18.0000 1.0000
41.4900 24.0000 1.0000
41.5000 24.0000 1.0000
41.5100 18.0000 1.0000
41.5200 19.0000 1.0000
41.5300 21.0000 1.0000
41.5400 14.0000 1.0000
41.5500 20.0000 1.0000
41.5600 14.0000 1.0000
41.5700 25.0000 1.0000
41.5800 27.0000 1.0000
41.5900 20.0000 1.0000
41.6000 30.0000 1.0000
41.6100 14.0000 1.0000
41.6200 16.0000 1.0000
41.6300 19.0000 1.0000
41.6400 16.0000 1.0000
41.6500 25.0000 1.0000
41.6600 24.0000 1.0000
41.6700 21.0000 1.0000
41.6800 24.0000 1.0000
41.6900 13.0000 1.0000
41.7000 24.0000 1.0000
41.7100 26.0000 1.0000
41.7200 18.0000 1.0000
41.7300 17.0000 1.0000
41.7400 19.0000 1.0000
41.7500 24.0000 1.0000
41.7600 24.0000 1.0000
41.7700 25.0000 1.0000
41.7800 12.0000 1.0000
41.7900 21.0000 1.0000
41.8000 23.0000 1.0000
41.8100 23.0000 1.0000
41.8200 19.0000 1.0000
41.8300 22.0000 1.0000
41.8400 17.0000 1.0000
41.8500 25.0000 1.0000
41.8600 23.0000 1.0000
41.8700 17.0000 1.0000
41.8800 29.0000 1.0000
41.8900 23.0000 1.0000
41.9000 24.0000 1.0000
41.9100 22.0000 1.0000
41.9200 21.0000 1.0000
41.9300 27.0000 1.0000
41.9400 18.0000 1.0000
41.9500 28.0000 1.0000
41.9600 32.0000 1.0000
41.9700 33.0000 1.0000
41.9800 25.0000 1.0000
41.9900 22.0000 1.0000
42.0000 21.0000 1.0000
42.0100 22.0000 1.0000
42.0200 23.0000 1.0000
42.0300 21.0000 1.0000
42.0400 22.0000 1.0000
42.0500 20.0000 1.0000
42.0600 12.0000 1.0000
42.0700 31.0000 1.0000
42.0800 25.0000 1.0000
42.0900 23.0000 1.0000
42.1000 26.0000 1.0000
42.1100 21.0000 1.0000
42.1200 23.0000 1.0000
42.1300 28.0000 1.0000
42.1400 28.0000 1.0000
42.1500 32.0000 1.0000
42.1600 29.0000 1.0000
42.1700 18.0000 1.0000
42.1800 29.0000 1.0000
42.1900 28.0000 1.0000
42.2000 23.0000 1.0000
42.2100 28.0000 1.0000
42.2200 34.0000 1.0000
42.2300 26.0000 1.0000
42.2400 25.0000 1.0000
42.2500 30.0000 1.0000
42.2600 31.0000 1.0000
42.2700 40.0000 1.0000
42.2800 20.0000 1.0000
42.2900 32.0000 1.0000
42.3000 32.0000 1.0000
42.3100 23.0000 1.0000
42.3200 33.0000 1.0000
42.3300 19.0000 1.0000
42.3400 31.0000 1.0000
42.3500 40.0000 1.0000
42.3600 41.0000 1.0000
42.3700 41.0000 1.0000
42.3800 30.0000 1.0000
42.3900 45.0000 1.0000
42.4000 34.0000 1.0000
42.4100 37.0000 1.0000
42.4200 35.0000 1.0000
42.4300 29.0000 1.0000
42.4400 31.0000 1.0000
42.4500 36.0000 1.0000
42.4600 35.0000 1.0000
42.4700 36.0000 1.0000
42.4800 49.0000 1.0000
42.4900 33.0000 1.0000
42.5000 36.0000 1.0000
42.5100 38.0000 1.0000
42.5200 55.0000 1.0000
42.5300 40.0000 1.0000
42.5400 66.0000 1.0000
42.5500 53.0000 1.0000
42.5600 44.0000 1.0000
42.5700 47.0000 1.0000
42.5800 40.0000 1.0000
42.5900 63.0000 1.0000
42.6000 37.0000 1.0000
42.6100 49.0000 1.0000
42.6200 46.0000 1.0000
42.6300 48.0000 1.0000
42.6400 59.0000 1.0000
42.6500 38.0000 1.0000
42.6600 31.0000 1.0000
42.6700 32.0000 1.0000
42.6800 48.0000 1.0000
42.6900 35.0000 1.0000
42.7000 37.0000 1.0000
42.7100 29.0000 1.0000
42.7200 37.0000 1.0000
42.7300 37.0000 1.0000
42.7400 24.0000 1.0000
42.7500 48.0000 1.0000
42.7600 27.0000 1.0000
42.7700 39.0000 1.0000
42.7800 25.0000 1.0000
42.7900 33.0000 1.0000
42.8000 38.0000 1.0000
42.8100 25.0000 1.0000
42.8200 30.0000 1.0000
42.8300 30.0000 1.0000
42.8400 29.0000 1.0000
42.8500 25.0000 1.0000
42.8600 25.0000 1.0000
42.8700 33.0000 1.0000
42.8800 28.0000 1.0000
42.8900 31.0000 1.0000
42.9000 29.0000 1.0000
42.9100 28.0000 1.0000
42.9200 30.0000 1.0000
42.9300 37.0000 1.0000
42.9400 35.0000 1.0000
42.9500 30.0000 1.0000
42.9600 36.0000 1.0000
42.9700 30.0000 1.0000
42.9800 22.0000 1.0000
42.9900 42.0000 1.0000
43.0000 33.0000 1.0000
43.0100 30.0000 1.0000
43.0200 20.0000 1.0000
43.0300 21.0000 1.0000
43.0400 30.0000 1.0000
43.0500 45.0000 1.0000
43.0600 27.0000 1.0000
43.0700 34.0000 1.0000
43.0800 25.0000 1.0000
43.0900 40.0000 1.0000
43.1000 29.0000 1.0000
43.1100 26.0000 1.0000
43.1200 29.0000 1.0000
43.1300 33.0000 1.0000
43.1400 34.0000 1.0000
43.1500 30.0000 1.0000
43.1600 25.0000 1.0000
43.1700 25.0000 1.0000
43.1800 33.0000 1.0000
43.1900 32.0000 1.0000
43.2000 45.0000 1.0000
43.2100 33.0000 1.0000
43.2200 35.0000 1.0000
43.2300 34.0000 1.0000
43.2400 24.0000 1.0000
43.2500 33.0000 1.0000
43.2600 28.0000 1.0000
43.2700 20.0000 1.0000
43.2800 34.0000 1.0000
43.2900 30.0000 1.0000
43.3000 32.0000 1.0000
43.3100 43.0000 1.0000
43.3200 35.0000 1.0000
43.3300 31.0000 1.0000
43.3400 38.0000 1.0000
43.3500 26.0000 1.0000
43.3600 44.0000 1.0000
43.3700 27.0000 1.0000
43.3800 20.0000 1.0000
43.3900 31.0000 1.0000
43.4000 35.0000 1.0000
43.4100 31.0000 1.0000
43.4200 40.0000 1.0000
43.4300 30.0000 1.0000
43.4400 43.0000 1.0000
43.4500 34.0000 1.0000
43.4600 32.0000 1.0000
43.4700 36.0000 1.0000
43.4800 51.0000 1.0000
43.4900 33.0000 1.0000
43.5000 42.0000 1.0000
43.5100 31.0000 1.0000
43.5200 31.0000 1.0000
43.5300 42.0000 1.0000
43.5400 30.0000 1.0000
43.5500 23.0000 1.0000
43.5600 28.0000 1.0000
43.5700 40.0000 1.0000
43.5800 30.0000 1.0000
43.5900 30.0000 1.0000
43.6000 29.0000 1.0000
43.6100 35.0000 1.0000
43.6200 33.0000 1.0000
43.6300 38.0000 1.0000
43.6400 31.0000 1.0000
43.6500 42.0000 1.0000
43.6600 34.0000 1.0000
43.6700 29.0000 1.0000
43.6800 32.0000 1.0000
43.6900 38.0000 1.0000
43.7000 31.0000 1.0000
43.7100 38.0000 1.0000
43.7200 46.0000 1.0000
43.7300 50.0000 1.0000
43.7400 35.0000 1.0000
43.7500 30.0000 1.0000
43.7600 37.0000 1.0000
43.7700 50.0000 1.0000
43.7800 45.0000 1.0000
43.7900 39.0000 1.0000
43.8000 41.0000 1.0000
43.8100 48.0000 1.0000
43.8200 36.0000 1.0000
43.8300 33.0000 1.0000
43.8400 40.0000 1.0000
43.8500 39.0000 1.0000
43.8600 35.0000 1.0000
43.8700 32.0000 1.0000
43.8800 29.0000 1.0000
43.8900 44.0000 1.0000
43.9000 39.0000 1.0000
43.9100 40.0000 1.0000
43.9200 40.0000 1.0000
43.9300 41.0000 1.0000
43.9400 38.0000 1.0000
43.9500 44.0000 1.0000
43.9600 49.0000 1.0000
43.9700 42.0000 1.0000
43.9800 24.0000 1.0000
43.9900 50.0000 1.0000
44.0000 39.0000 1.0000
44.0100 50.0000 1.0000
44.0200 49.0000 1.0000
44.0300 46.0000 1.0000
44.0400 43.0000 1.0000
44.0500 40.0000 1.0000
44.0600 33.0000 1.0000
44.0700 61.0000 1.0000
44.0800 41.0000 1.0000
44.0900 41.0000 1.0000
44.1000 44.0000 1.0000
44.1100 46.0000 1.0000
44.1200 47.0000 1.0000
44.1300 37.0000 1.0000
44.1400 35.0000 1.0000
44.1500 47.0000 1.0000
44.1600 43.0000 1.0000
44.1700 61.0000 1.0000
44.1800 53.0000 1.0000
44.1900 58.0000 1.0000
44.2000 47.0000 1.0000
44.2100 51.0000 1.0000
44.2200 45.0000 1.0000
44.2300 53.0000 1.0000
44.2400 43.0000 1.0000
44.2500 46.0000 1.0000
44.2600 47.0000 1.0000
44.2700 38.0000 1.0000
44.2800 53.0000 1.0000
44.2900 43.0000 1.0000
44.3000 37.0000 1.0000
44.3100 52.0000 1.0000
44.3200 48.0000 1.0000
44.3300 56.0000 1.0000
44.3400 56.0000 1.0000
44.3500 58.0000 1.0000
44.3600 52.0000 1.0000
44.3700 52.0000 1.0000
44.3800 52.0000 1.0000
44.3900 42.0000 1.0000
44.4000 42.0000 1.0000
44.4100 55.0000 1.0000
44.4200 52.0000 1.0000
44.4300 58.0000 1.0000
44.4400 52.0000 1.0000
44.4500 47.0000 1.0000
44.4600 44.0000 1.0000
44.4700 47.0000 1.0000
44.4800 54.0000 1.0000
44.4900 45.0000 1.0000
44.5000 58.0000 1.0000
44.5100 56.0000 1.0000
44.5200 55.0000 1.0000
44.5300 65.0000 1.0000
44.5400 62.0000 1.0000
44.5500 42.0000 1.0000
44.5600 59.0000 1.0000
44.5700 61.0000 1.0000
44.5800 56.0000 1.0000
44.5900 53.0000 1.0000
44.6000 56.0000 1.0000
44.6100 57.0000 1.0000
44.6200 50.0000 1.0000
44.6300 57.0000 1.0000
44.6400 44.0000 1.0000
44.6500 57.0000 1.0000
44.6600 47.0000 1.0000
44.6700 61.0000 1.0000
44.6800 57.0000 1.0000
44.6900 59.0000 1.0000
44.7000 58.0000 1.0000
44.7100 43.0000 1.0000
44.7200 65.0000 1.0000
44.7300 75.0000 1.0000
44.7400 58.0000 1.0000
44.7500 49.0000 1.0000
44.7600 58.0000 1.0000
44.7700 68.0000 1.0000
44.7800 65.0000 1.0000
44.7900 60.0000 1.0000
44.8000 68.0000 1.0000
44.8100 62.0000 1.0000
44.8200 70.0000 1.0000
44.8300 60.0000 1.0000
44.8400 78.0000 1.0000
44.8500 59.0000 1.0000
44.8600 79.0000 1.0000
44.8700 94.0000 1.0000
44.8800 57.0000 1.0000
44.8900 77.0000 1.0000
44.9000 92.0000 1.0000
44.9100 86.0000 1.0000
44.9200 66.0000 1.0000
44.9300 86.0000 1.0000
44.9400 76.0000 1.0000
44.9500 88.0000 1.0000
44.9600 79.0000 1.0000
44.9700 79.0000 1.0000
44.9800 77.0000 1.0000
44.9900 87.0000 1.0000
45.0000 84.0000 1.0000
45.0100 97.0000 1.0000
45.0200 75.0000 1.0000
45.0300 97.0000 1.0000
45.0400 87.0000 1.0000
45.0500 71.0000 1.0000
45.0600 100.0000 1.0000
45.0700 108.0000 1.0000
45.0800 98.0000 1.0000
45.0900 93.0000 1.0000
45.1000 95.0000 1.0000
45.1100 98.0000 1.0000
45.1200 105.0000 1.0000
45.1300 84.0000 1.0000
45.1400 88.0000 1.0000
45.1500 101.0000 1.0000
45.1600 95.0000 1.0000
45.1700 79.0000 1.0000
45.1800 94.0000 1.0000
45.1900 122.0000 1.0000
45.2000 96.0000 1.0000
45.2100 106.0000 1.0000
45.2200 111.0000 1.0000
45.2300 116.0000 1.0000
45.2400 117.0000 1.0000
45.2500 112.0000 1.0000
45.2600 113.0000 1.0000
45.2700 114.0000 1.0000
45.2800 128.0000 1.0000
45.2900 109.0000 1.0000
45.3000 107.0000 1.0000
45.3100 125.0000 1.0000
45.3200 124.0000 1.0000
45.3300 106.0000 1.0000
45.3400 119.0000 1.0000
45.3500 126.0000 1.0000
45.3600 105.0000 1.0000
45.3700 109.0000 1.0000
45.3800 129.0000 1.0000
45.3900 105.0000 1.0000
45.4000 117.0000 1.0000
45.4100 108.0000 1.0000
45.4200 108.0000 1.0000
45.4300 128.0000 1.0000
45.4400 103.0000 1.0000
45.4500 115.0000 1.0000
45.4600 109.0000 1.0000
45.4700 120.0000 1.0000
45.4800 110.0000 1.0000
45.4900 126.0000 1.0000
45.5000 131.0000 1.0000
45.5100 126.0000 1.0000
45.5200 127.0000 1.0000
45.5300 109.0000 1.0000
45.5400 104.0000 1.0000
45.5500 110.0000 1.0000
45.5600 120.0000 1.0000
45.5700 139.0000 1.0000
45.5800 139.0000 1.0000
45.5900 123.0000 1.0000
45.6000 125.0000 1.0000
45.6100 128.0000 1.0000
45.6200 115.0000 1.0000
45.6300 132.0000 1.0000
45.6400 122.0000 1.0000
45.6500 109.0000 1.0000
45.6600 129.0000 1.0000
45.6700 134.0000 1.0000
45.6800 126.0000 1.0000
45.6900 118.0000 1.0000
45.7000 118.0000 1.0000
45.7100 131.0000 1.0000
45.7200 132.0000 1.0000
45.7300 141.0000 1.0000
45.7400 106.0000 1.0000
45.7500 131.0000 1.0000
45.7600 123.0000 1.0000
45.7700 131.0000 1.0000
45.7800 163.0000 1.0000
45.7900 163.0000 1.0000
45.8000 147.0000 1.0000
45.8100 128.0000 1.0000
45.8200 146.0000 1.0000
45.8300 146.0000 1.0000
45.8400 161.0000 1.0000
45.8500 151.0000 1.0000
45.8600 137.0000 1.0000
45.8700 143.0000 1.0000
45.8800 161.0000 1.0000
45.8900 149.0000 1.0000
45.9000 158.0000 1.0000
45.9100 193.0000 1.0000
45.9200 147.0000 1.0000
45.9300 158.0000 1.0000
45.9400 158.0000 1.0000
45.9500 178.0000 1.0000
45.9600 166.0000 1.0000
45.9700 158.0000 1.0000
45.9800 166.0000 1.0000
45.9900 173.0000 1.0000
46.0000 153.0000 1.0000
46.0100 159.0000 1.0000
46.0200 165.0000 1.0000
46.0300 172.0000 1.0000
46.0400 173.0000 1.0000
46.0500 181.0000 1.0000
46.0600 187.0000 1.0000
46.0700 172.0000 1.0000
46.0800 184.0000 1.0000
46.0900 201.0000 1.0000
46.1000 199.0000 1.0000
46.1100 200.0000 1.0000
46.1200 177.0000 1.0000
46.1300 195.0000 1.0000
46.1400 190.0000 1.0000
46.1500 177.0000 1.0000
46.1600 214.0000 1.0000
46.1700 199.0000 1.0000
46.1800 205.0000 1.0000
46.1900 204.0000 1.0000
46.2000 233.0000 1.0000
46.2100 233.0000 1.0000
46.2200 238.0000 1.0000
46.2300 202.0000 1.0000
46.2400 247.0000 1.0000
46.2500 243.0000 1.0000
46.2600 246.0000 1.0000
46.2700 230.0000 1.0000
46.2800 235.0000 1.0000
46.2900 268.0000 1.0000
46.3000 245.0000 1.0000
46.3100 263.0000 1.0000
46.3200 251.0000 1.0000
46.3300 240.0000 1.0000
46.3400 248.0000 1.0000
46.3500 280.0000 1.0000
46.3600 240.0000 1.0000
46.3700 280.0000 1.0000
46.3800 285.0000 1.0000
46.3900 272.0000 1.0000
46.4000 270.0000 1.0000
46.4100 280.0000 1.0000
46.4200 270.0000 1.0000
46.4300 309.0000 1.0000
46.4400 285.0000 1.0000
46.4500 313.0000 1.0000
46.4600 352.0000 1.0000
46.4700 291.0000 1.0000
46.4800 309.0000 1.0000
46.4900 304.0000 1.0000
46.5000 308.0000 1.0000
46.5100 333.0000 1.0000
46.5200 348.0000 1.0000
46.5300 344.0000 1.0000
46.5400 370.0000 1.0000
46.5500 345.0000 1.0000
46.5600 381.0000 1.0000
46.5700 387.0000 1.0000
46.5800 358.0000 1.0000
46.5900 370.0000 1.0000
46.6000 376.0000 1.0000
46.6100 405.0000 1.0000
46.6200 430.0000 1.0000
46.6300 416.0000 1.0000
46.6400 367.0000 1.0000
46.6500 396.0000 1.0000
46.6600 432.0000 1.0000
46.6700 445.0000 1.0000
46.6800 483.0000 1.0000
46.6900 459.0000 1.0000
46.7000 498.0000 1.0000
46.7100 504.0000 1.0000
46.7200 503.0000 1.0000
46.7300 523.0000 1.0000
46.7400 536.0000 1.0000
46.7500 480.0000 1.0000
46.7600 573.0000 1.0000
46.7700 575.0000 1.0000
46.7800 533.0000 1.0000
46.7900 598.0000 1.0000
46.8000 579.0000 1.0000
46.8100 562.0000 1.0000
46.8200 620.0000 1.0000
46.8300 624.0000 1.0000
46.8400 636.0000 1.0000
46.8500 657.0000 1.0000
46.8600 671.0000 1.0000
46.8700 713.0000 1.0000
46.8800 760.0000 1.0000
46.8900 782.0000 1.0000
46.9000 825.0000 1.0000
46.9100 865.0000 1.0000
46.9200 819.0000 1.0000
46.9300 870.0000 1.0000
46.9400 944.0000 1.0000
46.9500 946.0000 1.0000
46.9600 953.0000 1.0000
46.9700 982.0000 1.0000
46.9800 1058.0000 1.0000
46.9900 1050.0000 1.0000
47.0000 1133.0000 1.0000
47.0100 1161.0000 1.0000
47.0200 1202.0000 1.0000
47.0300 1199.0000 1.0000
47.0400 1291.0000 1.0000
47.0500 1388.0000 1.0000
47.0600 1350.0000 1.0000
47.0700 1424.0000 1.0000
47.0800 1557.0000 1.0000
47.0900 1652.0000 1.0000
47.1000 1687.0000 1.0000
47.1100 1725.0000 1.0000
47.1200 1859.0000 1.0000
47.1300 1966.0000 1.0000
47.1400 2024.0000 1.0000
47.1500 2118.0000 1.0000
47.1600 2222.0000 1.0000
47.1700 2272.0000 1.0000
47.1800 2322.0000 1.0000
47.1900 2436.0000 1.0000
47.2000 2511.0000 1.0000
47.2100 2591.0000 1.0000
47.2200 2748.0000 1.0000
47.2300 2781.0000 1.0000
47.2400 2943.0000 1.0000
47.2500 3031.0000 1.0000
47.2600 3168.0000 1.0000
47.2700 3204.0000 1.0000
47.2800 3271.0000 1.0000
47.2900 3279.0000 1.0000
47.3000 3285.0000 1.0000
47.3100 3359.0000 1.0000
47.3200 3267.0000 1.0000
47.3300 3316.0000 1.0000
47.3400 3301.0000 1.0000
47.3500 3314.0000 1.0000
47.3600 3412.0000 1.0000
47.3700 3308.0000 1.0000
47.3800 3317.0000 1.0000
47.3900 3223.0000 1.0000
47.4000 3163.0000 1.0000
47.4100 3093.0000 1.0000
47.4200 2990.0000 1.0000
47.4300 3016.0000 1.0000
47.4400 2858.0000 1.0000
47.4500 2743.0000 1.0000
47.4600 2696.0000 1.0000
47.4700 2663.0000 1.0000
47.4800 2539.0000 1.0000
47.4900 2365.0000 1.0000
47.5000 2390.0000 1.0000
47.5100 2185.0000 1.0000
47.5200 2161.0000 1.0000
47.5300 2077.0000 1.0000
47.5400 2055.0000 1.0000
47.5500 1976.0000 1.0000
47.5600 1897.0000 1.0000
47.5700 1745.0000 1.0000
47.5800 1752.0000 1.0000
47.5900 1636.0000 1.0000
47.6000 1561.0000 1.0000
47.6100 1512.0000 1.0000
47.6200 1471.0000 1.0000
47.6300 1391.0000 1.0000
47.6400 1347.0000 1.0000
47.6500 1232.0000 1.0000
47.6600 1215.0000 1.0000
47.6700 1177.0000 1.0000
47.6800 1151.0000 1.0000
47.6900 1137.0000 1.0000
47.7000 1032.0000 1.0000
47.7100 960.0000 1.0000
47.7200 1012.0000 1.0000
47.7300 988.0000 1.0000
47.7400 902.0000 1.0000
47.7500 888.0000 1.0000
47.7600 859.0000 1.0000
47.7700 860.0000 1.0000
47.7800 797.0000 1.0000
47.7900 770.0000 1.0000
47.8000 740.0000 1.0000
47.8100 757.0000 1.0000
47.8200 745.0000 1.0000
47.8300 686.0000 1.0000
47.8400 675.0000 1.0000
47.8500 664.0000 1.0000
47.8600 669.0000 1.0000
47.8700 610.0000 1.0000
47.8800 613.0000 1.0000
47.8900 641.0000 1.0000
47.9000 584.0000 1.0000
47.9100 539.0000 1.0000
47.9200 543.0000 1.0000
47.9300 563.0000 1.0000
47.9400 559.0000 1.0000
47.9500 498.0000 1.0000
47.9600 508.0000 1.0000
47.9700 490.0000 1.0000
47.9800 465.0000 1.0000
47.9900 498.0000 1.0000
48.0000 496.0000 1.0000
48.0100 456.0000 1.0000
48.0200 445.0000 1.0000
48.0300 425.0000 1.0000
48.0400 420.0000 1.0000
48.0500 409.0000 1.0000
48.0600 406.0000 1.0000
48.0700 412.0000 1.0000
48.0800 379.0000 1.0000
48.0900 405.0000 1.0000
48.1000 386.0000 1.0000
48.1100 347.0000 1.0000
48.1200 363.0000 1.0000
48.1300 389.0000 1.0000
48.1400 366.0000 1.0000
48.1500 343.0000 1.0000
48.1600 320.0000 1.0000
48.1700 326.0000 1.0000
48.1800 301.0000 1.0000
48.1900 348.0000 1.0000
48.2000 290.0000 1.0000
48.2100 286.0000 1.0000
48.2200 330.0000 1.0000
48.2300 314.0000 1.0000
48.2400 301.0000 1.0000
48.2500 323.0000 1.0000
48.2600 287.0000 1.0000
48.2700 291.0000 1.0000
48.2800 261.0000 1.0000
48.2900 289.0000 1.0000
48.3000 256.0000 1.0000
48.3100 232.0000 1.0000
48.3200 268.0000 1.0000
48.3300 249.0000 1.0000
48.3400 243.0000 1.0000
48.3500 244.0000 1.0000
48.3600 258.0000 1.0000
48.3700 231.0000 1.0000
48.3800 208.0000 1.0000
48.3900 258.0000 1.0000
48.4000 208.0000 1.0000
48.4100 246.0000 1.0000
48.4200 227.0000 1.0000
48.4300 227.0000 1.0000
48.4400 236.0000 1.0000
48.4500 211.0000 1.0000
48.4600 220.0000 1.0000
48.4700 207.0000 1.0000
48.4800 212.0000 1.0000
48.4900 240.0000 1.0000
48.5000 184.0000 1.0000
48.5100 224.0000 1.0000
48.5200 213.0000 1.0000
48.5300 174.0000 1.0000
48.5400 178.0000 1.0000
48.5500 184.0000 1.0000
48.5600 213.0000 1.0000
48.5700 183.0000 1.0000
48.5800 184.0000 1.0000
48.5900 188.0000 1.0000
48.6000 189.0000 1.0000
48.6100 184.0000 1.0000
48.6200 191.0000 1.0000
48.6300 172.0000 1.0000
48.6400 148.0000 1.0000
48.6500 149.0000 1.0000
48.6600 167.0000 1.0000
48.6700 176.0000 1.0000
48.6800 170.0000 1.0000
48.6900 158.0000 1.0000
48.7000 163.0000 1.0000
48.7100 160.0000 1.0000
48.7200 175.0000 1.0000
48.7300 160.0000 1.0000
48.7400 141.0000 1.0000
48.7500 142.0000 1.0000
48.7600 159.0000 1.0000
48.7700 131.0000 1.0000
48.7800 124.0000 1.0000
48.7900 119.0000 1.0000
48.8000 158.0000 1.0000
48.8100 163.0000 1.0000
48.8200 154.0000 1.0000
48.8300 128.0000 1.0000
48.8400 139.0000 1.0000
48.8500 141.0000 1.0000
48.8600 134.0000 1.0000
48.8700 137.0000 1.0000
48.8800 133.0000 1.0000
48.8900 147.0000 1.0000
48.9000 133.0000 1.0000
48.9100 126.0000 1.0000
48.9200 112.0000 1.0000
48.9300 122.0000 1.0000
48.9400 102.0000 1.0000
48.9500 114.0000 1.0000
48.9600 121.0000 1.0000
48.9700 101.0000 1.0000
48.9800 107.0000 1.0000
48.9900 112.0000 1.0000
49.0000 114.0000 1.0000
49.0100 100.0000 1.0000
49.0200 131.0000 1.0000
49.0300 131.0000 1.0000
49.0400 126.0000 1.0000
49.0500 113.0000 1.0000
49.0600 102.0000 1.0000
49.0700 130.0000 1.0000
49.0800 100.0000 1.0000
49.0900 114.0000 1.0000
49.1000 114.0000 1.0000
49.1100 90.0000 1.0000
49.1200 90.0000 1.0000
49.1300 102.0000 1.0000
49.1400 107.0000 1.0000
49.1500 93.0000 1.0000
49.1600 102.0000 1.0000
49.1700 132.0000 1.0000
49.1800 99.0000 1.0000
49.1900 112.0000 1.0000
49.2000 109.0000 1.0000
49.2100 101.0000 1.0000
49.2200 104.0000 1.0000
49.2300 113.0000 1.0000
49.2400 99.0000 1.0000
49.2500 101.0000 1.0000
49.2600 103.0000 1.0000
49.2700 78.0000 1.0000
49.2800 113.0000 1.0000
49.2900 77.0000 1.0000
49.3000 89.0000 1.0000
49.3100 82.0000 1.0000
49.3200 99.0000 1.0000
49.3300 94.0000 1.0000
49.3400 106.0000 1.0000
49.3500 93.0000 1.0000
49.3600 100.0000 1.0000
49.3700 94.0000 1.0000
49.3800 93.0000 1.0000
49.3900 89.0000 1.0000
49.4000 97.0000 1.0000
49.4100 83.0000 1.0000
49.4200 85.0000 1.0000
49.4300 81.0000 1.0000
49.4400 83.0000 1.0000
49.4500 97.0000 1.0000
49.4600 85.0000 1.0000
49.4700 98.0000 1.0000
49.4800 87.0000 1.0000
49.4900 72.0000 1.0000
49.5000 70.0000 1.0000
49.5100 73.0000 1.0000
49.5200 75.0000 1.0000
49.5300 84.0000 1.0000
49.5400 75.0000 1.0000
49.5500 79.0000 1.0000
49.5600 75.0000 1.0000
49.5700 73.0000 1.0000
49.5800 84.0000 1.0000
49.5900 91.0000 1.0000
49.6000 70.0000 1.0000
49.6100 83.0000 1.0000
49.6200 79.0000 1.0000
49.6300 79.0000 1.0000
49.6400 58.0000 1.0000
49.6500 67.0000 1.0000
49.6600 71.0000 1.0000
49.6700 65.0000 1.0000
49.6800 73.0000 1.0000
49.6900 69.0000 1.0000
49.7000 67.0000 1.0000
49.7100 71.0000 1.0000
49.7200 78.0000 1.0000
49.7300 81.0000 1.0000
49.7400 80.0000 1.0000
49.7500 65.0000 1.0000
49.7600 58.0000 1.0000
49.7700 72.0000 1.0000
49.7800 80.0000 1.0000
49.7900 78.0000 1.0000
49.8000 57.0000 1.0000
49.8100 69.0000 1.0000
49.8200 77.0000 1.0000
49.8300 67.0000 1.0000
49.8400 64.0000 1.0000
49.8500 71.0000 1.0000
49.8600 72.0000 1.0000
49.8700 53.0000 1.0000
49.8800 74.0000 1.0000
49.8900 57.0000 1.0000
49.9000 58.0000 1.0000
49.9100 66.0000 1.0000
49.9200 64.0000 1.0000
49.9300 75.0000 1.0000
49.9400 75.0000 1.0000
49.9500 64.0000 1.0000
49.9600 78.0000 1.0000
49.9700 68.0000 1.0000
49.9800 70.0000 1.0000
49.9900 65.0000 1.0000
50.0000 62.0000 1.0000
50.0100 59.0000 1.0000
50.0200 78.0000 1.0000
50.0300 68.0000 1.0000
50.0400 62.0000 1.0000
50.0500 50.0000 1.0000
50.0600 71.0000 1.0000
50.0700 62.0000 1.0000
50.0800 68.0000 1.0000
50.0900 59.0000 1.0000
50.1000 70.0000 1.0000
50.1100 72.0000 1.0000
50.1200 62.0000 1.0000
50.1300 70.0000 1.0000
50.1400 71.0000 1.0000
50.1500 62.0000 1.0000
50.1600 66.0000 1.0000
50.1700 73.0000 1.0000
50.1800 56.0000 1.0000
50.1900 61.0000 1.0000
50.2000 64.0000 1.0000
50.2100 61.0000 1.0000
50.2200 61.0000 1.0000
50.2300 50.0000 1.0000
50.2400 64.0000 1.0000
50.2500 82.0000 1.0000
50.2600 69.0000 1.0000
50.2700 64.0000 1.0000
50.2800 61.0000 1.0000
50.2900 66.0000 1.0000
50.3000 59.0000 1.0000
50.3100 72.0000 1.0000
50.3200 62.0000 1.0000
50.3300 62.0000 1.0000
50.3400 65.0000 1.0000
50.3500 62.0000 1.0000
50.3600 57.0000 1.0000
50.3700 56.0000 1.0000
50.3800 52.0000 1.0000
50.3900 44.0000 1.0000
50.4000 55.0000 1.0000
50.4100 60.0000 1.0000
50.4200 75.0000 1.0000
50.4300 58.0000 1.0000
50.4400 49.0000 1.0000
50.4500 61.0000 1.0000
50.4600 46.0000 1.0000
50.4700 52.0000 1.0000
50.4800 66.0000 1.0000
50.4900 48.0000 1.0000
50.5000 53.0000 1.0000
50.5100 65.0000 1.0000
50.5200 60.0000 1.0000
50.5300 64.0000 1.0000
50.5400 66.0000 1.0000
50.5500 59.0000 1.0000
50.5600 54.0000 1.0000
50.5700 45.0000 1.0000
50.5800 53.0000 1.0000
50.5900 60.0000 1.0000
50.6000 68.0000 1.0000
50.6100 63.0000 1.0000
50.6200 63.0000 1.0000
50.6300 58.0000 1.0000
50.6400 60.0000 1.0000
50.6500 54.0000 1.0000
50.6600 76.0000 1.0000
50.6700 48.0000 1.0000
50.6800 57.0000 1.0000
50.6900 63.0000 1.0000
50.7000 58.0000 1.0000
50.7100 57.0000 1.0000
50.7200 55.0000 1.0000
50.7300 45.0000 1.0000
50.7400 60.0000 1.0000
50.7500 47.0000 1.0000
50.7600 52.0000 1.0000
50.7700 42.0000 1.0000
50.7800 57.0000 1.0000
50.7900 61.0000 1.0000
50.8000 62.0000 1.0000
50.8100 54.0000 1.0000
50.8200 59.0000 1.0000
50.8300 55.0000 1.0000
50.8400 61.0000 1.0000
50.8500 65.0000 1.0000
50.8600 56.0000 1.0000
50.8700 57.0000 1.0000
50.8800 57.0000 1.0000
50.8900 59.0000 1.0000
50.9000 62.0000 1.0000
50.9100 56.0000 1.0000
50.9200 56.0000 1.0000
50.9300 61.0000 1.0000
50.9400 48.0000 1.0000
50.9500 54.0000 1.0000
50.9600 54.0000 1.0000
50.9700 48.0000 1.0000
50.9800 64.0000 1.0000
50.9900 50.0000 1.0000
51.0000 70.0000 1.0000
51.0100 53.0000 1.0000
51.0200 46.0000 1.0000
51.0300 40.0000 1.0000
51.0400 53.0000 1.0000
51.0500 53.0000 1.0000
51.0600 58.0000 1.0000
51.0700 59.0000 1.0000
51.0800 54.0000 1.0000
51.0900 72.0000 1.0000
51.1000 57.0000 1.0000
51.1100 61.0000 1.0000
51.1200 65.0000 1.0000
51.1300 66.0000 1.0000
51.1400 56.0000 1.0000
51.1500 69.0000 1.0000
51.1600 62.0000 1.0000
51.1700 61.0000 1.0000
51.1800 65.0000 1.0000
51.1900 66.0000 1.0000
51.2000 70.0000 1.0000
51.2100 60.0000 1.0000
51.2200 74.0000 1.0000
51.2300 75.0000 1.0000
51.2400 58.0000 1.0000
51.2500 77.0000 1.0000
51.2600 70.0000 1.0000
51.2700 53.0000 1.0000
51.2800 64.0000 1.0000
51.2900 64.0000 1.0000
51.3000 54.0000 1.0000
51.3100 62.0000 1.0000
51.3200 71.0000 1.0000
51.3300 60.0000 1.0000
51.3400 69.0000 1.0000
51.3500 58.0000 1.0000
51.3600 61.0000 1.0000
51.3700 65.0000 1.0000
51.3800 44.0000 1.0000
51.3900 49.0000 1.0000
51.4000 50.0000 1.0000
51.4100 44.0000 1.0000
51.4200 59.0000 1.0000
51.4300 35.0000 1.0000
51.4400 57.0000 1.0000
51.4500 55.0000 1.0000
51.4600 52.0000 1.0000
51.4700 45.0000 1.0000
51.4800 45.0000 1.0000
51.4900 57.0000 1.0000
51.5000 46.0000 1.0000
51.5100 56.0000 1.0000
51.5200 44.0000 1.0000
51.5300 51.0000 1.0000
51.5400 54.0000 1.0000
51.5500 48.0000 1.0000
51.5600 44.0000 1.0000
51.5700 72.0000 1.0000
51.5800 50.0000 1.0000
51.5900 48.0000 1.0000
51.6000 45.0000 1.0000
51.6100 45.0000 1.0000
51.6200 60.0000 1.0000
51.6300 56.0000 1.0000
51.6400 47.0000 1.0000
51.6500 43.0000 1.0000
51.6600 48.0000 1.0000
51.6700 38.0000 1.0000
51.6800 44.0000 1.0000
51.6900 50.0000 1.0000
51.7000 40.0000 1.0000
51.7100 46.0000 1.0000
51.7200 51.0000 1.0000
51.7300 54.0000 1.0000
51.7400 39.0000 1.0000
51.7500 39.0000 1.0000
51.7600 53.0000 1.0000
51.7700 61.0000 1.0000
51.7800 51.0000 1.0000
51.7900 45.0000 1.0000
51.8000 58.0000 1.0000
51.8100 54.0000 1.0000
51.8200 52.0000 1.0000
51.8300 39.0000 1.0000
51.8400 68.0000 1.0000
51.8500 58.0000 1.0000
51.8600 66.0000 1.0000
51.8700 46.0000 1.0000
51.8800 56.0000 1.0000
51.8900 54.0000 1.0000
51.9000 51.0000 1.0000
51.9100 64.0000 1.0000
51.9200 53.0000 1.0000
51.9300 50.0000 1.0000
51.9400 62.0000 1.0000
51.9500 49.0000 1.0000
51.9600 47.0000 1.0000
51.9700 56.0000 1.0000
51.9800 59.0000 1.0000
51.9900 50.0000 1.0000
52.0000 47.0000 1.0000
52.0100 51.0000 1.0000
52.0200 55.0000 1.0000
52.0300 38.0000 1.0000
52.0400 45.0000 1.0000
52.0500 57.0000 1.0000
52.0600 40.0000 1.0000
52.0700 42.0000 1.0000
52.0800 50.0000 1.0000
52.0900 41.0000 1.0000
52.1000 34.0000 1.0000
52.1100 44.0000 1.0000
52.1200 49.0000 1.0000
52.1300 51.0000 1.0000
52.1400 41.0000 1.0000
52.1500 41.0000 1.0000
52.1600 48.0000 1.0000
52.1700 46.0000 1.0000
52.1800 44.0000 1.0000
52.1900 47.0000 1.0000
52.2000 38.0000 1.0000
52.2100 50.0000 1.0000
52.2200 37.0000 1.0000
52.2300 38.0000 1.0000
52.2400 42.0000 1.0000
52.2500 46.0000 1.0000
52.2600 39.0000 1.0000
52.2700 40.0000 1.0000
52.2800 46.0000 1.0000
52.2900 40.0000 1.0000
52.3000 42.0000 1.0000
52.3100 40.0000 1.0000
52.3200 41.0000 1.0000
52.3300 30.0000 1.0000
52.3400 28.0000 1.0000
52.3500 39.0000 1.0000
52.3600 44.0000 1.0000
52.3700 28.0000 1.0000
52.3800 40.0000 1.0000
52.3900 43.0000 1.0000
52.4000 36.0000 1.0000
52.4100 38.0000 1.0000
52.4200 31.0000 1.0000
52.4300 48.0000 1.0000
52.4400 34.0000 1.0000
52.4500 49.0000 1.0000
52.4600 34.0000 1.0000
52.4700 27.0000 1.0000
52.4800 34.0000 1.0000
52.4900 39.0000 1.0000
52.5000 40.0000 1.0000
52.5100 36.0000 1.0000
52.5200 36.0000 1.0000
52.5300 26.0000 1.0000
52.5400 38.0000 1.0000
52.5500 46.0000 1.0000
52.5600 34.0000 1.0000
52.5700 45.0000 1.0000
52.5800 30.0000 1.0000
52.5900 32.0000 1.0000
52.6000 38.0000 1.0000
52.6100 51.0000 1.0000
52.6200 43.0000 1.0000
52.6300 43.0000 1.0000
52.6400 38.0000 1.0000
52.6500 32.0000 1.0000
52.6600 32.0000 1.0000
52.6700 37.0000 1.0000
52.6800 37.0000 1.0000
52.6900 33.0000 1.0000
52.7000 38.0000 1.0000
52.7100 30.0000 1.0000
52.7200 34.0000 1.0000
52.7300 37.0000 1.0000
52.7400 32.0000 1.0000
52.7500 25.0000 1.0000
52.7600 40.0000 1.0000
52.7700 32.0000 1.0000
52.7800 32.0000 1.0000
52.7900 41.0000 1.0000
52.8000 40.0000 1.0000
52.8100 42.0000 1.0000
52.8200 25.0000 1.0000
52.8300 37.0000 1.0000
52.8400 37.0000 1.0000
52.8500 32.0000 1.0000
52.8600 38.0000 1.0000
52.8700 34.0000 1.0000
52.8800 29.0000 1.0000
52.8900 36.0000 1.0000
52.9000 23.0000 1.0000
52.9100 30.0000 1.0000
52.9200 37.0000 1.0000
52.9300 27.0000 1.0000
52.9400 31.0000 1.0000
52.9500 29.0000 1.0000
52.9600 27.0000 1.0000
52.9700 26.0000 1.0000
52.9800 25.0000 1.0000
52.9900 32.0000 1.0000
53.0000 36.0000 1.0000
53.0100 37.0000 1.0000
53.0200 26.0000 1.0000
53.0300 42.0000 1.0000
53.0400 25.0000 1.0000
53.0500 25.0000 1.0000
53.0600 27.0000 1.0000
53.0700 37.0000 1.0000
53.0800 31.0000 1.0000
53.0900 31.0000 1.0000
53.1000 29.0000 1.0000
53.1100 33.0000 1.0000
53.1200 26.0000 1.0000
53.1300 32.0000 1.0000
53.1400 26.0000 1.0000
53.1500 26.0000 1.0000
53.1600 34.0000 1.0000
53.1700 33.0000 1.0000
53.1800 39.0000 1.0000
53.1900 30.0000 1.0000
53.2000 35.0000 1.0000
53.2100 30.0000 1.0000
53.2200 26.0000 1.0000
53.2300 24.0000 1.0000
53.2400 37.0000 1.0000
53.2500 27.0000 1.0000
53.2600 29.0000 1.0000
53.2700 31.0000 1.0000
53.2800 25.0000 1.0000
53.2900 34.0000 1.0000
53.3000 29.0000 1.0000
53.3100 29.0000 1.0000
53.3200 22.0000 1.0000
53.3300 26.0000 1.0000
53.3400 26.0000 1.0000
53.3500 26.0000 1.0000
53.3600 36.0000 1.0000
53.3700 29.0000 1.0000
53.3800 27.0000 1.0000
53.3900 30.0000 1.0000
53.4000 27.0000 1.0000
53.4100 21.0000 1.0000
53.4200 30.0000 1.0000
53.4300 24.0000 1.0000
53.4400 25.0000 1.0000
53.4500 26.0000 1.0000
53.4600 28.0000 1.0000
53.4700 31.0000 1.0000
53.4800 32.0000 1.0000
53.4900 25.0000 1.0000
53.5000 29.0000 1.0000
53.5100 29.0000 1.0000
53.5200 22.0000 1.0000
53.5300 23.0000 1.0000
53.5400 27.0000 1.0000
53.5500 24.0000 1.0000
53.5600 18.0000 1.0000
53.5700 28.0000 1.0000
53.5800 22.0000 1.0000
53.5900 19.0000 1.0000
53.6000 31.0000 1.0000
53.6100 26.0000 1.0000
53.6200 30.0000 1.0000
53.6300 28.0000 1.0000
53.6400 16.0000 1.0000
53.6500 29.0000 1.0000
53.6600 20.0000 1.0000
53.6700 26.0000 1.0000
53.6800 15.0000 1.0000
53.6900 24.0000 1.0000
53.7000 27.0000 1.0000
53.7100 22.0000 1.0000
53.7200 18.0000 1.0000
53.7300 27.0000 1.0000
53.7400 25.0000 1.0000
53.7500 20.0000 1.0000
53.7600 26.0000 1.0000
53.7700 21.0000 1.0000
53.7800 21.0000 1.0000
53.7900 20.0000 1.0000
53.8000 26.0000 1.0000
53.8100 26.0000 1.0000
53.8200 18.0000 1.0000
53.8300 23.0000 1.0000
53.8400 31.0000 1.0000
53.8500 25.0000 1.0000
53.8600 18.0000 1.0000
53.8700 18.0000 1.0000
53.8800 39.0000 1.0000
53.8900 19.0000 1.0000
53.9000 28.0000 1.0000
53.9100 16.0000 1.0000
53.9200 22.0000 1.0000
53.9300 22.0000 1.0000
53.9400 23.0000 1.0000
53.9500 30.0000 1.0000
53.9600 23.0000 1.0000
53.9700 26.0000 1.0000
53.9800 25.0000 1.0000
53.9900 26.0000 1.0000
54.0000 22.0000 1.0000
54.0100 26.0000 1.0000
54.0200 27.0000 1.0000
54.0300 25.0000 1.0000
54.0400 25.0000 1.0000
54.0500 28.0000 1.0000
54.0600 19.0000 1.0000
54.0700 25.0000 1.0000
54.0800 21.0000 1.0000
54.0900 23.0000 1.0000
54.1000 19.0000 1.0000
54.1100 28.0000 1.0000
54.1200 31.0000 1.0000
54.1300 35.0000 1.0000
54.1400 22.0000 1.0000
54.1500 24.0000 1.0000
54.1600 16.0000 1.0000
54.1700 29.0000 1.0000
54.1800 21.0000 1.0000
54.1900 19.0000 1.0000
54.2000 19.0000 1.0000
54.2100 17.0000 1.0000
54.2200 21.0000 1.0000
54.2300 22.0000 1.0000
54.2400 23.0000 1.0000
54.2500 18.0000 1.0000
54.2600 21.0000 1.0000
54.2700 24.0000 1.0000
54.2800 19.0000 1.0000
54.2900 12.0000 1.0000
54.3000 22.0000 1.0000
54.3100 15.0000 1.0000
54.3200 23.0000 1.0000
54.3300 11.0000 1.0000
54.3400 14.0000 1.0000
54.3500 17.0000 1.0000
54.3600 20.0000 1.0000
54.3700 23.0000 1.0000
54.3800 18.0000 1.0000
54.3900 15.0000 1.0000
54.4000 20.0000 1.0000
54.4100 19.0000 1.0000
54.4200 20.0000 1.0000
54.4300 27.0000 1.0000
54.4400 21.0000 1.0000
54.4500 18.0000 1.0000
54.4600 13.0000 1.0000
54.4700 18.0000 1.0000
54.4800 22.0000 1.0000
54.4900 19.0000 1.0000
54.5000 28.0000 1.0000
54.5100 16.0000 1.0000
54.5200 15.0000 1.0000
54.5300 20.0000 1.0000
54.5400 23.0000 1.0000
54.5500 21.0000 1.0000
54.5600 10.0000 1.0000
54.5700 23.0000 1.0000
54.5800 26.0000 1.0000
54.5900 29.0000 1.0000
54.6000 24.0000 1.0000
54.6100 10.0000 1.0000
54.6200 28.0000 1.0000
54.6300 16.0000 1.0000
54.6400 22.0000 1.0000
54.6500 25.0000 1.0000
54.6600 14.0000 1.0000
54.6700 12.0000 1.0000
54.6800 12.0000 1.0000
54.6900 25.0000 1.0000
54.7000 26.0000 1.0000
54.7100 24.0000 1.0000
54.7200 20.0000 1.0000
54.7300 20.0000 1.0000
54.7400 18.0000 1.0000
54.7500 18.0000 1.0000
54.7600 18.0000 1.0000
54.7700 8.0000 1.0000
54.7800 13.0000 1.0000
54.7900 15.0000 1.0000
54.8000 15.0000 1.0000
54.8100 18.0000 1.0000
54.8200 21.0000 1.0000
54.8300 21.0000 1.0000
54.8400 19.0000 1.0000
54.8500 17.0000 1.0000
54.8600 17.0000 1.0000
54.8700 15.0000 1.0000
54.8800 20.0000 1.0000
54.8900 16.0000 1.0000
54.9000 22.0000 1.0000
54.9100 26.0000 1.0000
54.9200 14.0000 1.0000
54.9300 23.0000 1.0000
54.9400 23.0000 1.0000
54.9500 20.0000 1.0000
54.9600 13.0000 1.0000
54.9700 18.0000 1.0000
54.9800 18.0000 1.0000
54.9900 21.0000 1.0000
55.0000 16.0000 1.0000
55.0100 20.0000 1.0000
55.0200 15.0000 1.0000
55.0300 17.0000 1.0000
55.0400 16.0000 1.0000
55.0500 18.0000 1.0000
55.0600 15.0000 1.0000
55.0700 14.0000 1.0000
55.0800 26.0000 1.0000
55.0900 10.0000 1.0000
55.1000 23.0000 1.0000
55.1100 18.0000 1.0000
55.1200 19.0000 1.0000
55.1300 14.0000 1.0000
55.1400 23.0000 1.0000
55.1500 19.0000 1.0000
55.1600 20.0000 1.0000
55.1700 16.0000 1.0000
55.1800 23.0000 1.0000
55.1900 19.0000 1.0000
55.2000 12.0000 1.0000
55.2100 19.0000 1.0000
55.2200 14.0000 1.0000
55.2300 18.0000 1.0000
55.2400 26.0000 1.0000
55.2500 14.0000 1.0000
55.2600 12.0000 1.0000
55.2700 20.0000 1.0000
55.2800 15.0000 1.0000
55.2900 20.0000 1.0000
55.3000 20.0000 1.0000
55.3100 16.0000 1.0000
55.3200 15.0000 1.0000
55.3300 12.0000 1.0000
55.3400 19.0000 1.0000
55.3500 23.0000 1.0000
55.3600 15.0000 1.0000
55.3700 15.0000 1.0000
55.3800 19.0000 1.0000
55.3900 21.0000 1.0000
55.4000 26.0000 1.0000
55.4100 18.0000 1.0000
55.4200 22.0000 1.0000
55.4300 17.0000 1.0000
55.4400 17.0000 1.0000
55.4500 20.0000 1.0000
55.4600 23.0000 1.0000
55.4700 24.0000 1.0000
55.4800 19.0000 1.0000
55.4900 19.0000 1.0000
55.5000 17.0000 1.0000
55.5100 17.0000 1.0000
55.5200 15.0000 1.0000
55.5300 16.0000 1.0000
55.5400 11.0000 1.0000
55.5500 17.0000 1.0000
55.5600 11.0000 1.0000
55.5700 14.0000 1.0000
55.5800 14.0000 1.0000
55.5900 13.0000 1.0000
55.6000 18.0000 1.0000
55.6100 10.0000 1.0000
55.6200 18.0000 1.0000
55.6300 10.0000 1.0000
55.6400 16.0000 1.0000
55.6500 19.0000 1.0000
55.6600 17.0000 1.0000
55.6700 14.0000 1.0000
55.6800 13.0000 1.0000
55.6900 21.0000 1.0000
55.7000 16.0000 1.0000
55.7100 9.0000 1.0000
55.7200 19.0000 1.0000
55.7300 18.0000 1.0000
55.7400 16.0000 1.0000
55.7500 22.0000 1.0000
55.7600 19.0000 1.0000
55.7700 15.0000 1.0000
55.7800 14.0000 1.0000
55.7900 26.0000 1.0000
55.8000 15.0000 1.0000
55.8100 18.0000 1.0000
55.8200 13.0000 1.0000
55.8300 13.0000 1.0000
55.8400 13.0000 1.0000
55.8500 21.0000 1.0000
55.8600 14.0000 1.0000
55.8700 19.0000 1.0000
55.8800 14.0000 1.0000
55.8900 6.0000 1.0000
55.9000 18.0000 1.0000
55.9100 11.0000 1.0000
55.9200 15.0000 1.0000
55.9300 10.0000 1.0000
55.9400 22.0000 1.0000
55.9500 23.0000 1.0000
55.9600 19.0000 1.0000
55.9700 16.0000 1.0000
55.9800 11.0000 1.0000
55.9900 17.0000 1.0000
56.0000 15.0000 1.0000
56.0100 16.0000 1.0000
56.0200 19.0000 1.0000
56.0300 9.0000 1.0000
56.0400 11.0000 1.0000
56.0500 14.0000 1.0000
56.0600 13.0000 1.0000
56.0700 19.0000 1.0000
56.0800 15.0000 1.0000
56.0900 15.0000 1.0000
56.1000 16.0000 1.0000
56.1100 13.0000 1.0000
56.1200 13.0000 1.0000
56.1300 13.0000 1.0000
56.1400 16.0000 1.0000
56.1500 14.0000 1.0000
56.1600 15.0000 1.0000
56.1700 21.0000 1.0000
56.1800 12.0000 1.0000
56.1900 19.0000 1.0000
56.2000 18.0000 1.0000
56.2100 15.0000 1.0000
56.2200 8.0000 1.0000
56.2300 18.0000 1.0000
56.2400 13.0000 1.0000
56.2500 8.0000 1.0000
56.2600 8.0000 1.0000
56.2700 10.0000 1.0000
56.2800 19.0000 1.0000
56.2900 16.0000 1.0000
56.3000 22.0000 1.0000
56.3100 12.0000 1.0000
56.3200 18.0000 1.0000
56.3300 14.0000 1.0000
56.3400 18.0000 1.0000
56.3500 12.0000 1.0000
56.3600 21.0000 1.0000
56.3700 18.0000 1.0000
56.3800 17.0000 1.0000
56.3900 19.0000 1.0000
56.4000 20.0000 1.0000
56.4100 11.0000 1.0000
56.4200 16.0000 1.0000
56.4300 21.0000 1.0000
56.4400 16.0000 1.0000
56.4500 12.0000 1.0000
56.4600 18.0000 1.0000
56.4700 19.0000 1.0000
56.4800 18.0000 1.0000
56.4900 12.0000 1.0000
56.5000 14.0000 1.0000
56.5100 19.0000 1.0000
56.5200 15.0000 1.0000
56.5300 12.0000 1.0000
56.5400 20.0000 1.0000
56.5500 19.0000 1.0000
56.5600 17.0000 1.0000
56.5700 15.0000 1.0000
56.5800 17.0000 1.0000
56.5900 14.0000 1.0000
56.6000 16.0000 1.0000
56.6100 10.0000 1.0000
56.6200 17.0000 1.0000
56.6300 16.0000 1.0000
56.6400 16.0000 1.0000
56.6500 17.0000 1.0000
56.6600 18.0000 1.0000
56.6700 13.0000 1.0000
56.6800 15.0000 1.0000
56.6900 18.0000 1.0000
56.7000 8.0000 1.0000
56.7100 20.0000 1.0000
56.7200 14.0000 1.0000
56.7300 13.0000 1.0000
56.7400 10.0000 1.0000
56.7500 11.0000 1.0000
56.7600 11.0000 1.0000
56.7700 20.0000 1.0000
56.7800 20.0000 1.0000
56.7900 10.0000 1.0000
56.8000 8.0000 1.0000
56.8100 16.0000 1.0000
56.8200 13.0000 1.0000
56.8300 17.0000 1.0000
56.8400 14.0000 1.0000
56.8500 15.0000 1.0000
56.8600 23.0000 1.0000
56.8700 17.0000 1.0000
56.8800 9.0000 1.0000
56.8900 13.0000 1.0000
56.9000 12.0000 1.0000
56.9100 14.0000 1.0000
56.9200 11.0000 1.0000
56.9300 19.0000 1.0000
56.9400 14.0000 1.0000
56.9500 17.0000 1.0000
56.9600 13.0000 1.0000
56.9700 15.0000 1.0000
56.9800 14.0000 1.0000
56.9900 14.0000 1.0000
57.0000 15.0000 1.0000
57.0100 15.0000 1.0000
57.0200 11.0000 1.0000
57.0300 17.0000 1.0000
57.0400 8.0000 1.0000
57.0500 18.0000 1.0000
57.0600 12.0000 1.0000
57.0700 10.0000 1.0000
57.0800 23.0000 1.0000
57.0900 15.0000 1.0000
57.1000 19.0000 1.0000
57.1100 10.0000 1.0000
57.1200 23.0000 1.0000
57.1300 9.0000 1.0000
57.1400 15.0000 1.0000
57.1500 15.0000 1.0000
57.1600 16.0000 1.0000
57.1700 16.0000 1.0000
57.1800 12.0000 1.0000
57.1900 13.0000 1.0000
57.2000 15.0000 1.0000
57.2100 9.0000 1.0000
57.2200 8.0000 1.0000
57.2300 11.0000 1.0000
57.2400 24.0000 1.0000
57.2500 13.0000 1.0000
57.2600 13.0000 1.0000
57.2700 16.0000 1.0000
57.2800 22.0000 1.0000
57.2900 19.0000 1.0000
57.3000 12.0000 1.0000
57.3100 10.0000 1.0000
57.3200 13.0000 1.0000
57.3300 10.0000 1.0000
57.3400 17.0000 1.0000
57.3500 13.0000 1.0000
57.3600 10.0000 1.0000
57.3700 10.0000 1.0000
57.3800 22.0000 1.0000
57.3900 12.0000 1.0000
57.4000 6.0000 1.0000
57.4100 15.0000 1.0000
57.4200 12.0000 1.0000
57.4300 11.0000 1.0000
57.4400 14.0000 1.0000
57.4500 17.0000 1.0000
57.4600 16.0000 1.0000
57.4700 15.0000 1.0000
57.4800 14.0000 1.0000
57.4900 9.0000 1.0000
57.5000 16.0000 1.0000
57.5100 15.0000 1.0000
57.5200 14.0000 1.0000
57.5300 12.0000 1.0000
57.5400 12.0000 1.0000
57.5500 21.0000 1.0000
57.5600 15.0000 1.0000
57.5700 6.0000 1.0000
57.5800 18.0000 1.0000
57.5900 11.0000 1.0000
57.6000 8.0000 1.0000
57.6100 15.0000 1.0000
57.6200 13.0000 1.0000
57.6300 16.0000 1.0000
57.6400 22.0000 1.0000
57.6500 14.0000 1.0000
57.6600 14.0000 1.0000
57.6700 23.0000 1.0000
57.6800 15.0000 1.0000
57.6900 16.0000 1.0000
57.7000 20.0000 1.0000
57.7100 10.0000 1.0000
57.7200 16.0000 1.0000
57.7300 9.0000 1.0000
57.7400 13.0000 1.0000
57.7500 16.0000 1.0000
57.7600 15.0000 1.0000
57.7700 19.0000 1.0000
57.7800 11.0000 1.0000
57.7900 12.0000 1.0000
57.8000 14.0000 1.0000
57.8100 9.0000 1.0000
57.8200 9.0000 1.0000
57.8300 19.0000 1.0000
57.8400 14.0000 1.0000
57.8500 14.0000 1.0000
57.8600 18.0000 1.0000
57.8700 14.0000 1.0000
57.8800 12.0000 1.0000
57.8900 14.0000 1.0000
57.9000 12.0000 1.0000
57.9100 14.0000 1.0000
57.9200 16.0000 1.0000
57.9300 13.0000 1.0000
57.9400 16.0000 1.0000
57.9500 15.0000 1.0000
57.9600 11.0000 1.0000
57.9700 15.0000 1.0000
57.9800 13.0000 1.0000
57.9900 16.0000 1.0000
58.0000 14.0000 1.0000
58.0100 17.0000 1.0000
58.0200 20.0000 1.0000
58.0300 12.0000 1.0000
58.0400 15.0000 1.0000
58.0500 17.0000 1.0000
58.0600 10.0000 1.0000
58.0700 25.0000 1.0000
58.0800 19.0000 1.0000
58.0900 10.0000 1.0000
58.1000 13.0000 1.0000
58.1100 14.0000 1.0000
58.1200 15.0000 1.0000
58.1300 8.0000 1.0000
58.1400 16.0000 1.0000
58.1500 15.0000 1.0000
58.1600 15.0000 1.0000
58.1700 9.0000 1.0000
58.1800 16.0000 1.0000
58.1900 9.0000 1.0000
58.2000 8.0000 1.0000
58.2100 13.0000 1.0000
58.2200 13.0000 1.0000
58.2300 13.0000 1.0000
58.2400 15.0000 1.0000
58.2500 14.0000 1.0000
58.2600 19.0000 1.0000
58.2700 11.0000 1.0000
58.2800 11.0000 1.0000
58.2900 17.0000 1.0000
58.3000 15.0000 1.0000
58.3100 12.0000 1.0000
58.3200 13.0000 1.0000
58.3300 9.0000 1.0000
58.3400 9.0000 1.0000
58.3500 8.0000 1.0000
58.3600 11.0000 1.0000
58.3700 15.0000 1.0000
58.3800 9.0000 1.0000
58.3900 18.0000 1.0000
58.4000 22.0000 1.0000
58.4100 10.0000 1.0000
58.4200 5.0000 1.0000
58.4300 8.0000 1.0000
58.4400 15.0000 1.0000
58.4500 18.0000 1.0000
58.4600 21.0000 1.0000
58.4700 11.0000 1.0000
58.4800 14.0000 1.0000
58.4900 10.0000 1.0000
58.5000 7.0000 1.0000
58.5100 11.0000 1.0000
58.5200 15.0000 1.0000
58.5300 10.0000 1.0000
58.5400 8.0000 1.0000
58.5500 10.0000 1.0000
58.5600 12.0000 1.0000
58.5700 15.0000 1.0000
58.5800 13.0000 1.0000
58.5900 8.0000 1.0000
58.6000 6.0000 1.0000
58.6100 13.0000 1.0000
58.6200 12.0000 1.0000
58.6300 13.0000 1.0000
58.6400 12.0000 1.0000
58.6500 10.0000 1.0000
58.6600 8.0000 1.0000
58.6700 11.0000 1.0000
58.6800 10.0000 1.0000
58.6900 11.0000 1.0000
58.7000 9.0000 1.0000
58.7100 8.0000 1.0000
58.7200 14.0000 1.0000
58.7300 13.0000 1.0000
58.7400 15.0000 1.0000
58.7500 9.0000 1.0000
58.7600 12.0000 1.0000
58.7700 17.0000 1.0000
58.7800 9.0000 1.0000
58.7900 14.0000 1.0000
58.8000 15.0000 1.0000
58.8100 12.0000 1.0000
58.8200 7.0000 1.0000
58.8300 10.0000 1.0000
58.8400 20.0000 1.0000
58.8500 12.0000 1.0000
58.8600 12.0000 1.0000
58.8700 12.0000 1.0000
58.8800 14.0000 1.0000
58.8900 13.0000 1.0000
58.9000 19.0000 1.0000
58.9100 15.0000 1.0000
58.9200 11.0000 1.0000
58.9300 14.0000 1.0000
58.9400 8.0000 1.0000
58.9500 13.0000 1.0000
58.9600 12.0000 1.0000
58.9700 17.0000 1.0000
58.9800 12.0000 1.0000
58.9900 9.0000 1.0000
59.0000 11.0000 1.0000
59.0100 11.0000 1.0000
59.0200 11.0000 1.0000
59.0300 12.0000 1.0000
59.0400 16.0000 1.0000
59.0500 11.0000 1.0000
59.0600 10.0000 1.0000
59.0700 15.0000 1.0000
59.0800 22.0000 1.0000
59.0900 11.0000 1.0000
59.1000 16.0000 1.0000
59.1100 11.0000 1.0000
59.1200 14.0000 1.0000
59.1300 8.0000 1.0000
59.1400 9.0000 1.0000
59.1500 18.0000 1.0000
59.1600 14.0000 1.0000
59.1700 8.0000 1.0000
59.1800 10.0000 1.0000
59.1900 6.0000 1.0000
59.2000 13.0000 1.0000
59.2100 8.0000 1.0000
59.2200 15.0000 1.0000
59.2300 14.0000 1.0000
59.2400 12.0000 1.0000
59.2500 12.0000 1.0000
59.2600 14.0000 1.0000
59.2700 11.0000 1.0000
59.2800 7.0000 1.0000
59.2900 9.0000 1.0000
59.3000 13.0000 1.0000
59.3100 15.0000 1.0000
59.3200 14.0000 1.0000
59.3300 9.0000 1.0000
59.3400 9.0000 1.0000
59.3500 10.0000 1.0000
59.3600 17.0000 1.0000
59.3700 15.0000 1.0000
59.3800 11.0000 1.0000
59.3900 11.0000 1.0000
59.4000 12.0000 1.0000
59.4100 12.0000 1.0000
59.4200 11.0000 1.0000
59.4300 9.0000 1.0000
59.4400 6.0000 1.0000
59.4500 13.0000 1.0000
59.4600 15.0000 1.0000
59.4700 16.0000 1.0000
59.4800 14.0000 1.0000
59.4900 15.0000 1.0000
59.5000 11.0000 1.0000
59.5100 22.0000 1.0000
59.5200 11.0000 1.0000
59.5300 16.0000 1.0000
59.5400 10.0000 1.0000
59.5500 9.0000 1.0000
59.5600 6.0000 1.0000
59.5700 10.0000 1.0000
59.5800 16.0000 1.0000
59.5900 13.0000 1.0000
59.6000 10.0000 1.0000
59.6100 15.0000 1.0000
59.6200 10.0000 1.0000
59.6300 13.0000 1.0000
59.6400 13.0000 1.0000
59.6500 16.0000 1.0000
59.6600 10.0000 1.0000
59.6700 12.0000 1.0000
59.6800 12.0000 1.0000
59.6900 15.0000 1.0000
59.7000 15.0000 1.0000
59.7100 6.0000 1.0000
59.7200 10.0000 1.0000
59.7300 12.0000 1.0000
59.7400 8.0000 1.0000
59.7500 14.0000 1.0000
59.7600 15.0000 1.0000
59.7700 16.0000 1.0000
59.7800 14.0000 1.0000
59.7900 12.0000 1.0000
59.8000 12.0000 1.0000
59.8100 12.0000 1.0000
59.8200 11.0000 1.0000
59.8300 23.0000 1.0000
59.8400 11.0000 1.0000
59.8500 12.0000 1.0000
59.8600 13.0000 1.0000
59.8700 14.0000 1.0000
59.8800 15.0000 1.0000
59.8900 12.0000 1.0000
59.9000 10.0000 1.0000
59.9100 12.0000 1.0000
59.9200 13.0000 1.0000
59.9300 6.0000 1.0000
59.9400 10.0000 1.0000
59.9500 9.0000 1.0000
59.9600 18.0000 1.0000
59.9700 12.0000 1.0000
59.9800 10.0000 1.0000
59.9900 8.0000 1.0000
60.0000 10.0000 1.0000
60.0100 12.0000 1.0000
60.0200 12.0000 1.0000
60.0300 12.0000 1.0000
60.0400 6.0000 1.0000
60.0500 18.0000 1.0000
60.0600 11.0000 1.0000
60.0700 16.0000 1.0000
60.0800 16.0000 1.0000
60.0900 11.0000 1.0000
60.1000 14.0000 1.0000
60.1100 10.0000 1.0000
60.1200 18.0000 1.0000
60.1300 9.0000 1.0000
60.1400 13.0000 1.0000
60.1500 7.0000 1.0000
60.1600 11.0000 1.0000
60.1700 11.0000 1.0000
60.1800 19.0000 1.0000
60.1900 4.0000 1.0000
60.2000 15.0000 1.0000
60.2100 7.0000 1.0000
60.2200 6.0000 1.0000
60.2300 6.0000 1.0000
60.2400 16.0000 1.0000
60.2500 12.0000 1.0000
60.2600 13.0000 1.0000
60.2700 11.0000 1.0000
60.2800 7.0000 1.0000
60.2900 11.0000 1.0000
60.3000 11.0000 1.0000
60.3100 13.0000 1.0000
60.3200 9.0000 1.0000
60.3300 14.0000 1.0000
60.3400 12.0000 1.0000
60.3500 15.0000 1.0000
60.3600 13.0000 1.0000
60.3700 9.0000 1.0000
60.3800 12.0000 1.0000
60.3900 11.0000 1.0000
60.4000 9.0000 1.0000
60.4100 13.0000 1.0000
60.4200 13.0000 1.0000
60.4300 10.0000 1.0000
60.4400 7.0000 1.0000
60.4500 7.0000 1.0000
60.4600 12.0000 1.0000
60.4700 10.0000 1.0000
60.4800 12.0000 1.0000
60.4900 9.0000 1.0000
60.5000 10.0000 1.0000
60.5100 6.0000 1.0000
60.5200 10.0000 1.0000
60.5300 10.0000 1.0000
60.5400 8.0000 1.0000
60.5500 8.0000 1.0000
60.5600 12.0000 1.0000
60.5700 13.0000 1.0000
60.5800 11.0000 1.0000
60.5900 6.0000 1.0000
60.6000 19.0000 1.0000
60.6100 10.0000 1.0000
60.6200 17.0000 1.0000
60.6300 11.0000 1.0000
60.6400 16.0000 1.0000
60.6500 22.0000 1.0000
60.6600 16.0000 1.0000
60.6700 7.0000 1.0000
60.6800 17.0000 1.0000
60.6900 4.0000 1.0000
60.7000 9.0000 1.0000
60.7100 17.0000 1.0000
60.7200 21.0000 1.0000
60.7300 6.0000 1.0000
60.7400 13.0000 1.0000
60.7500 11.0000 1.0000
60.7600 18.0000 1.0000
60.7700 15.0000 1.0000
60.7800 18.0000 1.0000
60.7900 11.0000 1.0000
60.8000 7.0000 1.0000
60.8100 5.0000 1.0000
60.8200 6.0000 1.0000
60.8300 11.0000 1.0000
60.8400 14.0000 1.0000
60.8500 7.0000 1.0000
60.8600 6.0000 1.0000
60.8700 15.0000 1.0000
60.8800 11.0000 1.0000
60.8900 11.0000 1.0000
60.9000 14.0000 1.0000
60.9100 20.0000 1.0000
60.9200 11.0000 1.0000
60.9300 10.0000 1.0000
60.9400 7.0000 1.0000
60.9500 7.0000 1.0000
60.9600 13.0000 1.0000
60.9700 12.0000 1.0000
60.9800 11.0000 1.0000
60.9900 9.0000 1.0000
61.0000 9.0000 1.0000
61.0100 13.0000 1.0000
61.0200 11.0000 1.0000
61.0300 16.0000 1.0000
61.0400 14.0000 1.0000
61.0500 14.0000 1.0000
61.0600 16.0000 1.0000
61.0700 14.0000 1.0000
61.0800 10.0000 1.0000
61.0900 13.0000 1.0000
61.1000 9.0000 1.0000
61.1100 11.0000 1.0000
61.1200 15.0000 1.0000
61.1300 12.0000 1.0000
61.1400 9.0000 1.0000
61.1500 11.0000 1.0000
61.1600 9.0000 1.0000
61.1700 10.0000 1.0000
61.1800 13.0000 1.0000
61.1900 11.0000 1.0000
61.2000 5.0000 1.0000
61.2100 10.0000 1.0000
61.2200 9.0000 1.0000
61.2300 12.0000 1.0000
61.2400 11.0000 1.0000
61.2500 9.0000 1.0000
61.2600 7.0000 1.0000
61.2700 10.0000 1.0000
61.2800 4.0000 1.0000
61.2900 18.0000 1.0000
61.3000 12.0000 1.0000
61.3100 15.0000 1.0000
61.3200 7.0000 1.0000
61.3300 12.0000 1.0000
61.3400 12.0000 1.0000
61.3500 8.0000 1.0000
61.3600 15.0000 1.0000
61.3700 9.0000 1.0000
61.3800 12.0000 1.0000
61.3900 6.0000 1.0000
61.4000 9.0000 1.0000
61.4100 15.0000 1.0000
61.4200 12.0000 1.0000
61.4300 9.0000 1.0000
61.4400 14.0000 1.0000
61.4500 11.0000 1.0000
61.4600 2.0000 1.0000
61.4700 8.0000 1.0000
61.4800 12.0000 1.0000
61.4900 9.0000 1.0000
61.5000 16.0000 1.0000
61.5100 10.0000 1.0000
61.5200 12.0000 1.0000
61.5300 11.0000 1.0000
61.5400 9.0000 1.0000
61.5500 10.0000 1.0000
61.5600 20.0000 1.0000
61.5700 12.0000 1.0000
61.5800 7.0000 1.0000
61.5900 15.0000 1.0000
61.6000 12.0000 1.0000
61.6100 13.0000 1.0000
61.6200 13.0000 1.0000
61.6300 10.0000 1.0000
61.6400 9.0000 1.0000
61.6500 17.0000 1.0000
61.6600 6.0000 1.0000
61.6700 11.0000 1.0000
61.6800 18.0000 1.0000
61.6900 13.0000 1.0000
61.7000 13.0000 1.0000
61.7100 12.0000 1.0000
61.7200 8.0000 1.0000
61.7300 11.0000 1.0000
61.7400 8.0000 1.0000
61.7500 8.0000 1.0000
61.7600 8.0000 1.0000
61.7700 8.0000 1.0000
61.7800 17.0000 1.0000
61.7900 13.0000 1.0000
61.8000 8.0000 1.0000
61.8100 6.0000 1.0000
61.8200 8.0000 1.0000
61.8300 7.0000 1.0000
61.8400 10.0000 1.0000
61.8500 13.0000 1.0000
61.8600 5.0000 1.0000
61.8700 15.0000 1.0000
61.8800 8.0000 1.0000
61.8900 11.0000 1.0000
61.9000 8.0000 1.0000
61.9100 8.0000 1.0000
61.9200 13.0000 1.0000
61.9300 8.0000 1.0000
61.9400 9.0000 1.0000
61.9500 11.0000 1.0000
61.9600 13.0000 1.0000
61.9700 15.0000 1.0000
61.9800 8.0000 1.0000
61.9900 12.0000 1.0000
62.0000 11.0000 1.0000
62.0100 14.0000 1.0000
62.0200 14.0000 1.0000
62.0300 12.0000 1.0000
62.0400 10.0000 1.0000
62.0500 8.0000 1.0000
62.0600 15.0000 1.0000
62.0700 8.0000 1.0000
62.0800 13.0000 1.0000
62.0900 10.0000 1.0000
62.1000 9.0000 1.0000
62.1100 9.0000 1.0000
62.1200 17.0000 1.0000
62.1300 11.0000 1.0000
62.1400 15.0000 1.0000
62.1500 14.0000 1.0000
62.1600 12.0000 1.0000
62.1700 10.0000 1.0000
62.1800 14.0000 1.0000
62.1900 4.0000 1.0000
62.2000 10.0000 1.0000
62.2100 15.0000 1.0000
62.2200 5.0000 1.0000
62.2300 11.0000 1.0000
62.2400 8.0000 1.0000
62.2500 15.0000 1.0000
62.2600 8.0000 1.0000
62.2700 16.0000 1.0000
62.2800 6.0000 1.0000
62.2900 8.0000 1.0000
62.3000 11.0000 1.0000
62.3100 13.0000 1.0000
62.3200 15.0000 1.0000
62.3300 9.0000 1.0000
62.3400 14.0000 1.0000
62.3500 11.0000 1.0000
62.3600 11.0000 1.0000
62.3700 14.0000 1.0000
62.3800 3.0000 1.0000
62.3900 15.0000 1.0000
62.4000 5.0000 1.0000
62.4100 10.0000 1.0000
62.4200 11.0000 1.0000
62.4300 10.0000 1.0000
62.4400 10.0000 1.0000
62.4500 15.0000 1.0000
62.4600 11.0000 1.0000
62.4700 11.0000 1.0000
62.4800 14.0000 1.0000
62.4900 10.0000 1.0000
62.5000 15.0000 1.0000
62.5100 8.0000 1.0000
62.5200 11.0000 1.0000
62.5300 7.0000 1.0000
62.5400 15.0000 1.0000
62.5500 7.0000 1.0000
62.5600 8.0000 1.0000
62.5700 10.0000 1.0000
62.5800 17.0000 1.0000
62.5900 12.0000 1.0000
62.6000 12.0000 1.0000
62.6100 9.0000 1.0000
62.6200 8.0000 1.0000
62.6300 13.0000 1.0000
62.6400 6.0000 1.0000
62.6500 13.0000 1.0000
62.6600 9.0000 1.0000
62.6700 7.0000 1.0000
62.6800 14.0000 1.0000
62.6900 13.0000 1.0000
62.7000 12.0000 1.0000
62.7100 10.0000 1.0000
62.7200 10.0000 1.0000
62.7300 15.0000 1.0000
62.7400 17.0000 1.0000
62.7500 15.0000 1.0000
62.7600 9.0000 1.0000
62.7700 12.0000 1.0000
62.7800 6.0000 1.0000
62.7900 8.0000 1.0000
62.8000 11.0000 1.0000
62.8100 7.0000 1.0000
62.8200 11.0000 1.0000
62.8300 7.0000 1.0000
62.8400 17.0000 1.0000
62.8500 7.0000 1.0000
62.8600 14.0000 1.0000
62.8700 10.0000 1.0000
62.8800 9.0000 1.0000
62.8900 15.0000 1.0000
62.9000 11.0000 1.0000
62.9100 6.0000 1.0000
62.9200 9.0000 1.0000
62.9300 8.0000 1.0000
62.9400 12.0000 1.0000
62.9500 11.0000 1.0000
62.9600 7.0000 1.0000
62.9700 11.0000 1.0000
62.9800 10.0000 1.0000
62.9900 14.0000 1.0000
63.0000 11.0000 1.0000
63.0100 3.0000 1.0000
63.0200 11.0000 1.0000
63.0300 9.0000 1.0000
63.0400 9.0000 1.0000
63.0500 9.0000 1.0000
63.0600 10.0000 1.0000
63.0700 10.0000 1.0000
63.0800 12.0000 1.0000
63.0900 7.0000 1.0000
63.1000 11.0000 1.0000
63.1100 10.0000 1.0000
63.1200 11.0000 1.0000
63.1300 11.0000 1.0000
63.1400 11.0000 1.0000
63.1500 14.0000 1.0000
63.1600 13.0000 1.0000
63.1700 12.0000 1.0000
63.1800 6.0000 1.0000
63.1900 4.0000 1.0000
63.2000 6.0000 1.0000
63.2100 11.0000 1.0000
63.2200 5.0000 1.0000
63.2300 8.0000 1.0000
63.2400 8.0000 1.0000
63.2500 18.0000 1.0000
63.2600 10.0000 1.0000
63.2700 8.0000 1.0000
63.2800 12.0000 1.0000
63.2900 8.0000 1.0000
63.3000 10.0000 1.0000
63.3100 11.0000 1.0000
63.3200 14.0000 1.0000
63.3300 10.0000 1.0000
63.3400 10.0000 1.0000
63.3500 12.0000 1.0000
63.3600 15.0000 1.0000
63.3700 11.0000 1.0000
63.3800 9.0000 1.0000
63.3900 9.0000 1.0000
63.4000 10.0000 1.0000
63.4100 12.0000 1.0000
63.4200 7.0000 1.0000
63.4300 11.0000 1.0000
63.4400 11.0000 1.0000
63.4500 13.0000 1.0000
63.4600 5.0000 1.0000
63.4700 14.0000 1.0000
63.4800 7.0000 1.0000
63.4900 12.0000 1.0000
63.5000 12.0000 1.0000
63.5100 12.0000 1.0000
63.5200 7.0000 1.0000
63.5300 12.0000 1.0000
63.5400 7.0000 1.0000
63.5500 7.0000 1.0000
63.5600 9.0000 1.0000
63.5700 11.0000 1.0000
63.5800 15.0000 1.0000
63.5900 14.0000 1.0000
63.6000 7.0000 1.0000
63.6100 10.0000 1.0000
63.6200 9.0000 1.0000
63.6300 10.0000 1.0000
63.6400 7.0000 1.0000
63.6500 15.0000 1.0000
63.6600 8.0000 1.0000
63.6700 17.0000 1.0000
63.6800 4.0000 1.0000
63.6900 7.0000 1.0000
63.7000 14.0000 1.0000
63.7100 9.0000 1.0000
63.7200 10.0000 1.0000
63.7300 9.0000 1.0000
63.7400 9.0000 1.0000
63.7500 12.0000 1.0000
63.7600 6.0000 1.0000
63.7700 6.0000 1.0000
63.7800 17.0000 1.0000
63.7900 13.0000 1.0000
63.8000 12.0000 1.0000
63.8100 7.0000 1.0000
63.8200 10.0000 1.0000
63.8300 11.0000 1.0000
63.8400 10.0000 1.0000
63.8500 12.0000 1.0000
63.8600 7.0000 1.0000
63.8700 9.0000 1.0000
63.8800 5.0000 1.0000
63.8900 11.0000 1.0000
63.9000 10.0000 1.0000
63.9100 9.0000 1.0000
63.9200 11.0000 1.0000
63.9300 9.0000 1.0000
63.9400 15.0000 1.0000
63.9500 14.0000 1.0000
63.9600 8.0000 1.0000
63.9700 15.0000 1.0000
63.9800 11.0000 1.0000
63.9900 8.0000 1.0000
64.0000 10.0000 1.0000
64.0100 13.0000 1.0000
64.0200 19.0000 1.0000
64.0300 6.0000 1.0000
64.0400 11.0000 1.0000
64.0500 13.0000 1.0000
64.0600 12.0000 1.0000
64.0700 12.0000 1.0000
64.0800 8.0000 1.0000
64.0900 13.0000 1.0000
64.1000 20.0000 1.0000
64.1100 6.0000 1.0000
64.1200 7.0000 1.0000
64.1300 11.0000 1.0000
64.1400 10.0000 1.0000
64.1500 11.0000 1.0000
64.1600 8.0000 1.0000
64.1700 12.0000 1.0000
64.1800 8.0000 1.0000
64.1900 3.0000 1.0000
64.2000 10.0000 1.0000
64.2100 13.0000 1.0000
64.2200 13.0000 1.0000
64.2300 8.0000 1.0000
64.2400 11.0000 1.0000
64.2500 6.0000 1.0000
64.2600 8.0000 1.0000
64.2700 21.0000 1.0000
64.2800 9.0000 1.0000
64.2900 9.0000 1.0000
64.3000 13.0000 1.0000
64.3100 13.0000 1.0000
64.3200 9.0000 1.0000
64.3300 13.0000 1.0000
64.3400 8.0000 1.0000
64.3500 7.0000 1.0000
64.3600 6.0000 1.0000
64.3700 15.0000 1.0000
64.3800 7.0000 1.0000
64.3900 8.0000 1.0000
64.4000 14.0000 1.0000
64.4100 10.0000 1.0000
64.4200 11.0000 1.0000
64.4300 12.0000 1.0000
64.4400 7.0000 1.0000
64.4500 9.0000 1.0000
64.4600 11.0000 1.0000
64.4700 17.0000 1.0000
64.4800 9.0000 1.0000
64.4900 7.0000 1.0000
64.5000 9.0000 1.0000
64.5100 6.0000 1.0000
64.5200 5.0000 1.0000
64.5300 9.0000 1.0000
64.5400 10.0000 1.0000
64.5500 8.0000 1.0000
64.5600 6.0000 1.0000
64.5700 12.0000 1.0000
64.5800 10.0000 1.0000
64.5900 9.0000 1.0000
64.6000 15.0000 1.0000
64.6100 9.0000 1.0000
64.6200 11.0000 1.0000
64.6300 9.0000 1.0000
64.6400 10.0000 1.0000
64.6500 8.0000 1.0000
64.6600 11.0000 1.0000
64.6700 12.0000 1.0000
64.6800 15.0000 1.0000
64.6900 10.0000 1.0000
64.7000 11.0000 1.0000
64.7100 8.0000 1.0000
64.7200 11.0000 1.0000
64.7300 12.0000 1.0000
64.7400 12.0000 1.0000
64.7500 8.0000 1.0000
64.7600 6.0000 1.0000
64.7700 11.0000 1.0000
64.7800 14.0000 1.0000
64.7900 9.0000 1.0000
64.8000 8.0000 1.0000
64.8100 13.0000 1.0000
64.8200 11.0000 1.0000
64.8300 12.0000 1.0000
64.8400 8.0000 1.0000
64.8500 8.0000 1.0000
64.8600 13.0000 1.0000
64.8700 8.0000 1.0000
64.8800 5.0000 1.0000
64.8900 11.0000 1.0000
64.9000 13.0000 1.0000
64.9100 10.0000 1.0000
64.9200 11.0000 1.0000
64.9300 4.0000 1.0000
64.9400 11.0000 1.0000
64.9500 14.0000 1.0000
64.9600 10.0000 1.0000
64.9700 10.0000 1.0000
64.9800 12.0000 1.0000
64.9900 9.0000 1.0000
65.0000 11.0000 1.0000
65.0100 6.0000 1.0000
65.0200 9.0000 1.0000
65.0300 10.0000 1.0000
65.0400 13.0000 1.0000
65.0500 16.0000 1.0000
65.0600 9.0000 1.0000
65.0700 14.0000 1.0000
65.0800 9.0000 1.0000
65.0900 8.0000 1.0000
65.1000 13.0000 1.0000
65.1100 12.0000 1.0000
65.1200 7.0000 1.0000
65.1300 9.0000 1.0000
65.1400 11.0000 1.0000
65.1500 5.0000 1.0000
65.1600 9.0000 1.0000
65.1700 15.0000 1.0000
65.1800 8.0000 1.0000
65.1900 8.0000 1.0000
65.2000 7.0000 1.0000
65.2100 14.0000 1.0000
65.2200 8.0000 1.0000
65.2300 12.0000 1.0000
65.2400 6.0000 1.0000
65.2500 5.0000 1.0000
65.2600 6.0000 1.0000
65.2700 7.0000 1.0000
65.2800 6.0000 1.0000
65.2900 7.0000 1.0000
65.3000 13.0000 1.0000
65.3100 11.0000 1.0000
65.3200 8.0000 1.0000
65.3300 9.0000 1.0000
65.3400 11.0000 1.0000
65.3500 12.0000 1.0000
65.3600 10.0000 1.0000
65.3700 12.0000 1.0000
65.3800 14.0000 1.0000
65.3900 8.0000 1.0000
65.4000 16.0000 1.0000
65.4100 7.0000 1.0000
65.4200 7.0000 1.0000
65.4300 12.0000 1.0000
65.4400 9.0000 1.0000
65.4500 13.0000 1.0000
65.4600 10.0000 1.0000
65.4700 10.0000 1.0000
65.4800 11.0000 1.0000
65.4900 12.0000 1.0000
65.5000 11.0000 1.0000
65.5100 11.0000 1.0000
65.5200 6.0000 1.0000
65.5300 7.0000 1.0000
65.5400 12.0000 1.0000
65.5500 6.0000 1.0000
65.5600 8.0000 1.0000
65.5700 10.0000 1.0000
65.5800 16.0000 1.0000
65.5900 6.0000 1.0000
65.6000 15.0000 1.0000
65.6100 12.0000 1.0000
65.6200 8.0000 1.0000
65.6300 16.0000 1.0000
65.6400 13.0000 1.0000
65.6500 8.0000 1.0000
65.6600 11.0000 1.0000
65.6700 9.0000 1.0000
65.6800 7.0000 1.0000
65.6900 5.0000 1.0000
65.7000 9.0000 1.0000
65.7100 9.0000 1.0000
65.7200 9.0000 1.0000
65.7300 14.0000 1.0000
65.7400 14.0000 1.0000
65.7500 9.0000 1.0000
65.7600 12.0000 1.0000
65.7700 14.0000 1.0000
65.7800 8.0000 1.0000
65.7900 5.0000 1.0000
65.8000 15.0000 1.0000
65.8100 11.0000 1.0000
65.8200 8.0000 1.0000
65.8300 9.0000 1.0000
65.8400 7.0000 1.0000
65.8500 7.0000 1.0000
65.8600 6.0000 1.0000
65.8700 6.0000 1.0000
65.8800 9.0000 1.0000
65.8900 11.0000 1.0000
65.9000 11.0000 1.0000
65.9100 9.0000 1.0000
65.9200 8.0000 1.0000
65.9300 9.0000 1.0000
65.9400 12.0000 1.0000
65.9500 7.0000 1.0000
65.9600 8.0000 1.0000
65.9700 9.0000 1.0000
65.9800 10.0000 1.0000
65.9900 8.0000 1.0000
66.0000 10.0000 1.0000
66.0100 16.0000 1.0000
66.0200 11.0000 1.0000
66.0300 12.0000 1.0000
66.0400 10.0000 1.0000
66.0500 11.0000 1.0000
66.0600 12.0000 1.0000
66.0700 11.0000 1.0000
66.0800 5.0000 1.0000
66.0900 11.0000 1.0000
66.1000 10.0000 1.0000
66.1100 8.0000 1.0000
66.1200 7.0000 1.0000
66.1300 11.0000 1.0000
66.1400 10.0000 1.0000
66.1500 11.0000 1.0000
66.1600 10.0000 1.0000
66.1700 12.0000 1.0000
66.1800 6.0000 1.0000
66.1900 6.0000 1.0000
66.2000 12.0000 1.0000
66.2100 10.0000 1.0000
66.2200 8.0000 1.0000
66.2300 9.0000 1.0000
66.2400 10.0000 1.0000
66.2500 7.0000 1.0000
66.2600 13.0000 1.0000
66.2700 11.0000 1.0000
66.2800 15.0000 1.0000
66.2900 12.0000 1.0000
66.3000 11.0000 1.0000
66.3100 13.0000 1.0000
66.3200 7.0000 1.0000
66.3300 14.0000 1.0000
66.3400 11.0000 1.0000
66.3500 16.0000 1.0000
66.3600 9.0000 1.0000
66.3700 10.0000 1.0000
66.3800 10.0000 1.0000
66.3900 12.0000 1.0000
66.4000 5.0000 1.0000
66.4100 6.0000 1.0000
66.4200 18.0000 1.0000
66.4300 9.0000 1.0000
66.4400 6.0000 1.0000
66.4500 9.0000 1.0000
66.4600 8.0000 1.0000
66.4700 9.0000 1.0000
66.4800 11.0000 1.0000
66.4900 19.0000 1.0000
66.5000 10.0000 1.0000
66.5100 8.0000 1.0000
66.5200 14.0000 1.0000
66.5300 11.0000 1.0000
66.5400 16.0000 1.0000
66.5500 5.0000 1.0000
66.5600 9.0000 1.0000
66.5700 20.0000 1.0000
66.5800 10.0000 1.0000
66.5900 11.0000 1.0000
66.6000 7.0000 1.0000
66.6100 13.0000 1.0000
66.6200 14.0000 1.0000
66.6300 8.0000 1.0000
66.6400 10.0000 1.0000
66.6500 11.0000 1.0000
66.6600 10.0000 1.0000
66.6700 18.0000 1.0000
66.6800 10.0000 1.0000
66.6900 14.0000 1.0000
66.7000 5.0000 1.0000
66.7100 16.0000 1.0000
66.7200 1.0000 1.0000
66.7300 15.0000 1.0000
66.7400 10.0000 1.0000
66.7500 10.0000 1.0000
66.7600 8.0000 1.0000
66.7700 11.0000 1.0000
66.7800 9.0000 1.0000
66.7900 13.0000 1.0000
66.8000 16.0000 1.0000
66.8100 17.0000 1.0000
66.8200 6.0000 1.0000
66.8300 9.0000 1.0000
66.8400 13.0000 1.0000
66.8500 12.0000 1.0000
66.8600 15.0000 1.0000
66.8700 8.0000 1.0000
66.8800 11.0000 1.0000
66.8900 14.0000 1.0000
66.9000 10.0000 1.0000
66.9100 8.0000 1.0000
66.9200 12.0000 1.0000
66.9300 11.0000 1.0000
66.9400 8.0000 1.0000
66.9500 12.0000 1.0000
66.9600 11.0000 1.0000
66.9700 7.0000 1.0000
66.9800 8.0000 1.0000
66.9900 8.0000 1.0000
67.0000 14.0000 1.0000
67.0100 11.0000 1.0000
67.0200 12.0000 1.0000
67.0300 7.0000 1.0000
67.0400 15.0000 1.0000
67.0500 2.0000 1.0000
67.0600 7.0000 1.0000
67.0700 10.0000 1.0000
67.0800 9.0000 1.0000
67.0900 11.0000 1.0000
67.1000 9.0000 1.0000
67.1100 2.0000 1.0000
67.1200 18.0000 1.0000
67.1300 10.0000 1.0000
67.1400 8.0000 1.0000
67.1500 9.0000 1.0000
67.1600 9.0000 1.0000
67.1700 12.0000 1.0000
67.1800 10.0000 1.0000
67.1900 7.0000 1.0000
67.2000 12.0000 1.0000
67.2100 9.0000 1.0000
67.2200 11.0000 1.0000
67.2300 8.0000 1.0000
67.2400 8.0000 1.0000
67.2500 12.0000 1.0000
67.2600 11.0000 1.0000
67.2700 9.0000 1.0000
67.2800 5.0000 1.0000
67.2900 8.0000 1.0000
67.3000 11.0000 1.0000
67.3100 5.0000 1.0000
67.3200 5.0000 1.0000
67.3300 12.0000 1.0000
67.3400 6.0000 1.0000
67.3500 9.0000 1.0000
67.3600 11.0000 1.0000
67.3700 7.0000 1.0000
67.3800 9.0000 1.0000
67.3900 12.0000 1.0000
67.4000 5.0000 1.0000
67.4100 15.0000 1.0000
67.4200 13.0000 1.0000
67.4300 6.0000 1.0000
67.4400 7.0000 1.0000
67.4500 6.0000 1.0000
67.4600 12.0000 1.0000
67.4700 18.0000 1.0000
67.4800 9.0000 1.0000
67.4900 9.0000 1.0000
67.5000 6.0000 1.0000
67.5100 11.0000 1.0000
67.5200 16.0000 1.0000
67.5300 9.0000 1.0000
67.5400 7.0000 1.0000
67.5500 14.0000 1.0000
67.5600 8.0000 1.0000
67.5700 8.0000 1.0000
67.5800 15.0000 1.0000
67.5900 10.0000 1.0000
67.6000 8.0000 1.0000
67.6100 14.0000 1.0000
67.6200 16.0000 1.0000
67.6300 9.0000 1.0000
67.6400 15.0000 1.0000
67.6500 12.0000 1.0000
67.6600 9.0000 1.0000
67.6700 12.0000 1.0000
67.6800 9.0000 1.0000
67.6900 11.0000 1.0000
67.7000 10.0000 1.0000
67.7100 7.0000 1.0000
67.7200 10.0000 1.0000
67.7300 10.0000 1.0000
67.7400 7.0000 1.0000
67.7500 11.0000 1.0000
67.7600 8.0000 1.0000
67.7700 8.0000 1.0000
67.7800 6.0000 1.0000
67.7900 9.0000 1.0000
67.8000 15.0000 1.0000
67.8100 16.0000 1.0000
67.8200 6.0000 1.0000
67.8300 9.0000 1.0000
67.8400 9.0000 1.0000
67.8500 14.0000 1.0000
67.8600 6.0000 1.0000
67.8700 10.0000 1.0000
67.8800 12.0000 1.0000
67.8900 12.0000 1.0000
67.9000 11.0000 1.0000
67.9100 7.0000 1.0000
67.9200 17.0000 1.0000
67.9300 3.0000 1.0000
67.9400 8.0000 1.0000
67.9500 10.0000 1.0000
67.9600 10.0000 1.0000
67.9700 9.0000 1.0000
67.9800 12.0000 1.0000
67.9900 11.0000 1.0000
68.0000 8.0000 1.0000
68.0100 9.0000 1.0000
68.0200 5.0000 1.0000
68.0300 6.0000 1.0000
68.0400 15.0000 1.0000
68.0500 4.0000 1.0000
68.0600 12.0000 1.0000
68.0700 8.0000 1.0000
68.0800 8.0000 1.0000
68.0900 12.0000 1.0000
68.1000 7.0000 1.0000
68.1100 8.0000 1.0000
68.1200 3.0000 1.0000
68.1300 6.0000 1.0000
68.1400 11.0000 1.0000
68.1500 7.0000 1.0000
68.1600 11.0000 1.0000
68.1700 6.0000 1.0000
68.1800 9.0000 1.0000
68.1900 13.0000 1.0000
68.2000 6.0000 1.0000
68.2100 9.0000 1.0000
68.2200 12.0000 1.0000
68.2300 5.0000 1.0000
68.2400 13.0000 1.0000
68.2500 11.0000 1.0000
68.2600 8.0000 1.0000
68.2700 10.0000 1.0000
68.2800 13.0000 1.0000
68.2900 5.0000 1.0000
68.3000 7.0000 1.0000
68.3100 9.0000 1.0000
68.3200 8.0000 1.0000
68.3300 6.0000 1.0000
68.3400 9.0000 1.0000
68.3500 6.0000 1.0000
68.3600 8.0000 1.0000
68.3700 9.0000 1.0000
68.3800 17.0000 1.0000
68.3900 10.0000 1.0000
68.4000 15.0000 1.0000
68.4100 12.0000 1.0000
68.4200 9.0000 1.0000
68.4300 7.0000 1.0000
68.4400 9.0000 1.0000
68.4500 11.0000 1.0000
68.4600 7.0000 1.0000
68.4700 11.0000 1.0000
68.4800 7.0000 1.0000
68.4900 4.0000 1.0000
68.5000 13.0000 1.0000
68.5100 9.0000 1.0000
68.5200 11.0000 1.0000
68.5300 8.0000 1.0000
68.5400 11.0000 1.0000
68.5500 10.0000 1.0000
68.5600 8.0000 1.0000
68.5700 10.0000 1.0000
68.5800 9.0000 1.0000
68.5900 11.0000 1.0000
68.6000 7.0000 1.0000
68.6100 10.0000 1.0000
68.6200 6.0000 1.0000
68.6300 10.0000 1.0000
68.6400 8.0000 1.0000
68.6500 9.0000 1.0000
68.6600 7.0000 1.0000
68.6700 5.0000 1.0000
68.6800 13.0000 1.0000
68.6900 8.0000 1.0000
68.7000 4.0000 1.0000
68.7100 5.0000 1.0000
68.7200 10.0000 1.0000
68.7300 8.0000 1.0000
68.7400 10.0000 1.0000
68.7500 9.0000 1.0000
68.7600 7.0000 1.0000
68.7700 9.0000 1.0000
68.7800 12.0000 1.0000
68.7900 4.0000 1.0000
68.8000 11.0000 1.0000
68.8100 7.0000 1.0000
68.8200 7.0000 1.0000
68.8300 10.0000 1.0000
68.8400 8.0000 1.0000
68.8500 11.0000 1.0000
68.8600 16.0000 1.0000
68.8700 6.0000 1.0000
68.8800 8.0000 1.0000
68.8900 12.0000 1.0000
68.9000 4.0000 1.0000
68.9100 11.0000 1.0000
68.9200 8.0000 1.0000
68.9300 14.0000 1.0000
68.9400 6.0000 1.0000
68.9500 7.0000 1.0000
68.9600 8.0000 1.0000
68.9700 4.0000 1.0000
68.9800 10.0000 1.0000
68.9900 3.0000 1.0000
69.0000 11.0000 1.0000
69.0100 9.0000 1.0000
69.0200 8.0000 1.0000
69.0300 5.0000 1.0000
69.0400 7.0000 1.0000
69.0500 8.0000 1.0000
69.0600 9.0000 1.0000
69.0700 7.0000 1.0000
69.0800 4.0000 1.0000
69.0900 9.0000 1.0000
69.1000 13.0000 1.0000
69.1100 13.0000 1.0000
69.1200 6.0000 1.0000
69.1300 9.0000 1.0000
69.1400 8.0000 1.0000
69.1500 9.0000 1.0000
69.1600 13.0000 1.0000
69.1700 9.0000 1.0000
69.1800 11.0000 1.0000
69.1900 9.0000 1.0000
69.2000 5.0000 1.0000
69.2100 6.0000 1.0000
69.2200 9.0000 1.0000
69.2300 8.0000 1.0000
69.2400 6.0000 1.0000
69.2500 9.0000 1.0000
69.2600 9.0000 1.0000
69.2700 9.0000 1.0000
69.2800 12.0000 1.0000
69.2900 7.0000 1.0000
69.3000 8.0000 1.0000
69.3100 9.0000 1.0000
69.3200 9.0000 1.0000
69.3300 11.0000 1.0000
69.3400 11.0000 1.0000
69.3500 18.0000 1.0000
69.3600 7.0000 1.0000
69.3700 14.0000 1.0000
69.3800 5.0000 1.0000
69.3900 14.0000 1.0000
69.4000 12.0000 1.0000
69.4100 10.0000 1.0000
69.4200 14.0000 1.0000
69.4300 10.0000 1.0000
69.4400 6.0000 1.0000
69.4500 4.0000 1.0000
69.4600 5.0000 1.0000
69.4700 7.0000 1.0000
69.4800 6.0000 1.0000
69.4900 4.0000 1.0000
69.5000 11.0000 1.0000
69.5100 8.0000 1.0000
69.5200 8.0000 1.0000
69.5300 7.0000 1.0000
69.5400 8.0000 1.0000
69.5500 12.0000 1.0000
69.5600 7.0000 1.0000
69.5700 5.0000 1.0000
69.5800 10.0000 1.0000
69.5900 5.0000 1.0000
69.6000 10.0000 1.0000
69.6100 10.0000 1.0000
69.6200 4.0000 1.0000
69.6300 8.0000 1.0000
69.6400 9.0000 1.0000
69.6500 13.0000 1.0000
69.6600 6.0000 1.0000
69.6700 12.0000 1.0000
69.6800 11.0000 1.0000
69.6900 10.0000 1.0000
69.7000 13.0000 1.0000
69.7100 16.0000 1.0000
69.7200 16.0000 1.0000
69.7300 5.0000 1.0000
69.7400 2.0000 1.0000
69.7500 8.0000 1.0000
69.7600 12.0000 1.0000
69.7700 7.0000 1.0000
69.7800 9.0000 1.0000
69.7900 9.0000 1.0000
69.8000 6.0000 1.0000
69.8100 7.0000 1.0000
69.8200 9.0000 1.0000
69.8300 10.0000 1.0000
69.8400 6.0000 1.0000
69.8500 12.0000 1.0000
69.8600 14.0000 1.0000
69.8700 11.0000 1.0000
69.8800 14.0000 1.0000
69.8900 12.0000 1.0000
69.9000 9.0000 1.0000
69.9100 8.0000 1.0000
69.9200 9.0000 1.0000
69.9300 4.0000 1.0000
69.9400 8.0000 1.0000
69.9500 12.0000 1.0000
69.9600 11.0000 1.0000
69.9700 5.0000 1.0000
69.9800 6.0000 1.0000
69.9900 7.0000 1.0000
70.0000 6.0000 1.0000
70.0100 9.0000 1.0000
70.0200 12.0000 1.0000
70.0300 14.0000 1.0000
70.0400 7.0000 1.0000
70.0500 9.0000 1.0000
70.0600 12.0000 1.0000
70.0700 8.0000 1.0000
70.0800 7.0000 1.0000
70.0900 11.0000 1.0000
70.1000 12.0000 1.0000
70.1100 4.0000 1.0000
70.1200 6.0000 1.0000
70.1300 11.0000 1.0000
70.1400 15.0000 1.0000
70.1500 14.0000 1.0000
70.1600 11.0000 1.0000
70.1700 7.0000 1.0000
70.1800 5.0000 1.0000
70.1900 8.0000 1.0000
70.2000 8.0000 1.0000
70.2100 6.0000 1.0000
70.2200 11.0000 1.0000
70.2300 17.0000 1.0000
70.2400 10.0000 1.0000
70.2500 7.0000 1.0000
70.2600 3.0000 1.0000
70.2700 8.0000 1.0000
70.2800 6.0000 1.0000
70.2900 8.0000 1.0000
70.3000 10.0000 1.0000
70.3100 9.0000 1.0000
70.3200 7.0000 1.0000
70.3300 10.0000 1.0000
70.3400 8.0000 1.0000
70.3500 6.0000 1.0000
70.3600 8.0000 1.0000
70.3700 10.0000 1.0000
70.3800 10.0000 1.0000
70.3900 12.0000 1.0000
70.4000 5.0000 1.0000
70.4100 9.0000 1.0000
70.4200 12.0000 1.0000
70.4300 7.0000 1.0000
70.4400 9.0000 1.0000
70.4500 3.0000 1.0000
70.4600 6.0000 1.0000
70.4700 10.0000 1.0000
70.4800 12.0000 1.0000
70.4900 13.0000 1.0000
70.5000 8.0000 1.0000
70.5100 9.0000 1.0000
70.5200 10.0000 1.0000
70.5300 6.0000 1.0000
70.5400 7.0000 1.0000
70.5500 7.0000 1.0000
70.5600 13.0000 1.0000
70.5700 6.0000 1.0000
70.5800 15.0000 1.0000
70.5900 4.0000 1.0000
70.6000 8.0000 1.0000
70.6100 8.0000 1.0000
70.6200 5.0000 1.0000
70.6300 7.0000 1.0000
70.6400 8.0000 1.0000
70.6500 9.0000 1.0000
70.6600 7.0000 1.0000
70.6700 12.0000 1.0000
70.6800 9.0000 1.0000
70.6900 13.0000 1.0000
70.7000 8.0000 1.0000
70.7100 6.0000 1.0000
70.7200 15.0000 1.0000
70.7300 15.0000 1.0000
70.7400 15.0000 1.0000
70.7500 4.0000 1.0000
70.7600 8.0000 1.0000
70.7700 4.0000 1.0000
70.7800 13.0000 1.0000
70.7900 10.0000 1.0000
70.8000 7.0000 1.0000
70.8100 4.0000 1.0000
70.8200 6.0000 1.0000
70.8300 12.0000 1.0000
70.8400 6.0000 1.0000
70.8500 9.0000 1.0000
70.8600 11.0000 1.0000
70.8700 11.0000 1.0000
70.8800 10.0000 1.0000
70.8900 8.0000 1.0000
70.9000 8.0000 1.0000
70.9100 9.0000 1.0000
70.9200 13.0000 1.0000
70.9300 7.0000 1.0000
70.9400 7.0000 1.0000
70.9500 7.0000 1.0000
70.9600 6.0000 1.0000
70.9700 9.0000 1.0000
70.9800 8.0000 1.0000
70.9900 6.0000 1.0000
71.0000 12.0000 1.0000
71.0100 17.0000 1.0000
71.0200 7.0000 1.0000
71.0300 8.0000 1.0000
71.0400 10.0000 1.0000
71.0500 11.0000 1.0000
71.0600 6.0000 1.0000
71.0700 9.0000 1.0000
71.0800 11.0000 1.0000
71.0900 10.0000 1.0000
71.1000 4.0000 1.0000
71.1100 14.0000 1.0000
71.1200 13.0000 1.0000
71.1300 11.0000 1.0000
71.1400 7.0000 1.0000
71.1500 11.0000 1.0000
71.1600 15.0000 1.0000
71.1700 13.0000 1.0000
71.1800 6.0000 1.0000
71.1900 12.0000 1.0000
71.2000 6.0000 1.0000
71.2100 7.0000 1.0000
71.2200 9.0000 1.0000
71.2300 4.0000 1.0000
71.2400 10.0000 1.0000
71.2500 8.0000 1.0000
71.2600 9.0000 1.0000
71.2700 6.0000 1.0000
71.2800 7.0000 1.0000
71.2900 14.0000 1.0000
71.3000 9.0000 1.0000
71.3100 8.0000 1.0000
71.3200 7.0000 1.0000
71.3300 11.0000 1.0000
71.3400 6.0000 1.0000
71.3500 14.0000 1.0000
71.3600 3.0000 1.0000
71.3700 12.0000 1.0000
71.3800 6.0000 1.0000
71.3900 9.0000 1.0000
71.4000 7.0000 1.0000
71.4100 8.0000 1.0000
71.4200 7.0000 1.0000
71.4300 16.0000 1.0000
71.4400 10.0000 1.0000
71.4500 9.0000 1.0000
71.4600 13.0000 1.0000
71.4700 11.0000 1.0000
71.4800 15.0000 1.0000
71.4900 11.0000 1.0000
71.5000 12.0000 1.0000
71.5100 5.0000 1.0000
71.5200 10.0000 1.0000
71.5300 5.0000 1.0000
71.5400 11.0000 1.0000
71.5500 10.0000 1.0000
71.5600 6.0000 1.0000
71.5700 11.0000 1.0000
71.5800 16.0000 1.0000
71.5900 8.0000 1.0000
71.6000 14.0000 1.0000
71.6100 11.0000 1.0000
71.6200 4.0000 1.0000
71.6300 9.0000 1.0000
71.6400 15.0000 1.0000
71.6500 5.0000 1.0000
71.6600 6.0000 1.0000
71.6700 10.0000 1.0000
71.6800 5.0000 1.0000
71.6900 6.0000 1.0000
71.7000 9.0000 1.0000
71.7100 8.0000 1.0000
71.7200 11.0000 1.0000
71.7300 10.0000 1.0000
71.7400 13.0000 1.0000
71.7500 12.0000 1.0000
71.7600 8.0000 1.0000
71.7700 10.0000 1.0000
71.7800 6.0000 1.0000
71.7900 8.0000 1.0000
71.8000 14.0000 1.0000
71.8100 9.0000 1.0000
71.8200 19.0000 1.0000
71.8300 10.0000 1.0000
71.8400 5.0000 1.0000
71.8500 7.0000 1.0000
71.8600 10.0000 1.0000
71.8700 15.0000 1.0000
71.8800 7.0000 1.0000
71.8900 4.0000 1.0000
71.9000 9.0000 1.0000
71.9100 5.0000 1.0000
71.9200 6.0000 1.0000
71.9300 9.0000 1.0000
71.9400 11.0000 1.0000
71.9500 7.0000 1.0000
71.9600 4.0000 1.0000
71.9700 12.0000 1.0000
71.9800 12.0000 1.0000
71.9900 12.0000 1.0000
72.0000 5.0000 1.0000
72.0100 13.0000 1.0000
72.0200 9.0000 1.0000
72.0300 13.0000 1.0000
72.0400 12.0000 1.0000
72.0500 11.0000 1.0000
72.0600 10.0000 1.0000
72.0700 12.0000 1.0000
72.0800 7.0000 1.0000
72.0900 7.0000 1.0000
72.1000 9.0000 1.0000
72.1100 5.0000 1.0000
72.1200 12.0000 1.0000
72.1300 9.0000 1.0000
72.1400 5.0000 1.0000
72.1500 13.0000 1.0000
72.1600 10.0000 1.0000
72.1700 12.0000 1.0000
72.1800 9.0000 1.0000
72.1900 8.0000 1.0000
72.2000 10.0000 1.0000
72.2100 5.0000 1.0000
72.2200 8.0000 1.0000
72.2300 6.0000 1.0000
72.2400 11.0000 1.0000
72.2500 9.0000 1.0000
72.2600 6.0000 1.0000
72.2700 8.0000 1.0000
72.2800 15.0000 1.0000
72.2900 8.0000 1.0000
72.3000 7.0000 1.0000
72.3100 11.0000 1.0000
72.3200 6.0000 1.0000
72.3300 12.0000 1.0000
72.3400 7.0000 1.0000
72.3500 7.0000 1.0000
72.3600 10.0000 1.0000
72.3700 12.0000 1.0000
72.3800 9.0000 1.0000
72.3900 9.0000 1.0000
72.4000 6.0000 1.0000
72.4100 12.0000 1.0000
72.4200 15.0000 1.0000
72.4300 11.0000 1.0000
72.4400 10.0000 1.0000
72.4500 10.0000 1.0000
72.4600 14.0000 1.0000
72.4700 13.0000 1.0000
72.4800 4.0000 1.0000
72.4900 11.0000 1.0000
72.5000 8.0000 1.0000
72.5100 12.0000 1.0000
72.5200 11.0000 1.0000
72.5300 12.0000 1.0000
72.5400 6.0000 1.0000
72.5500 15.0000 1.0000
72.5600 12.0000 1.0000
72.5700 6.0000 1.0000
72.5800 7.0000 1.0000
72.5900 12.0000 1.0000
72.6000 11.0000 1.0000
72.6100 7.0000 1.0000
72.6200 7.0000 1.0000
72.6300 6.0000 1.0000
72.6400 8.0000 1.0000
72.6500 11.0000 1.0000
72.6600 11.0000 1.0000
72.6700 12.0000 1.0000
72.6800 10.0000 1.0000
72.6900 13.0000 1.0000
72.7000 8.0000 1.0000
72.7100 9.0000 1.0000
72.7200 10.0000 1.0000
72.7300 11.0000 1.0000
72.7400 10.0000 1.0000
72.7500 10.0000 1.0000
72.7600 9.0000 1.0000
72.7700 6.0000 1.0000
72.7800 7.0000 1.0000
72.7900 11.0000 1.0000
72.8000 9.0000 1.0000
72.8100 9.0000 1.0000
72.8200 7.0000 1.0000
72.8300 4.0000 1.0000
72.8400 0.0000 1.0000
72.8500 15.0000 1.0000
72.8600 11.0000 1.0000
72.8700 11.0000 1.0000
72.8800 12.0000 1.0000
72.8900 7.0000 1.0000
72.9000 7.0000 1.0000
72.9100 5.0000 1.0000
72.9200 6.0000 1.0000
72.9300 9.0000 1.0000
72.9400 9.0000 1.0000
72.9500 8.0000 1.0000
72.9600 12.0000 1.0000
72.9700 5.0000 1.0000
72.9800 11.0000 1.0000
72.9900 12.0000 1.0000
73.0000 7.0000 1.0000
73.0100 11.0000 1.0000
73.0200 8.0000 1.0000
73.0300 10.0000 1.0000
73.0400 9.0000 1.0000
73.0500 5.0000 1.0000
73.0600 7.0000 1.0000
73.0700 8.0000 1.0000
73.0800 7.0000 1.0000
73.0900 8.0000 1.0000
73.1000 9.0000 1.0000
73.1100 7.0000 1.0000
73.1200 9.0000 1.0000
73.1300 12.0000 1.0000
73.1400 10.0000 1.0000
73.1500 11.0000 1.0000
73.1600 11.0000 1.0000
73.1700 9.0000 1.0000
73.1800 6.0000 1.0000
73.1900 13.0000 1.0000
73.2000 12.0000 1.0000
73.2100 9.0000 1.0000
73.2200 7.0000 1.0000
73.2300 12.0000 1.0000
73.2400 8.0000 1.0000
73.2500 7.0000 1.0000
73.2600 12.0000 1.0000
73.2700 5.0000 1.0000
73.2800 9.0000 1.0000
73.2900 4.0000 1.0000
73.3000 7.0000 1.0000
73.3100 15.0000 1.0000
73.3200 7.0000 1.0000
73.3300 12.0000 1.0000
73.3400 13.0000 1.0000
73.3500 6.0000 1.0000
73.3600 10.0000 1.0000
73.3700 8.0000 1.0000
73.3800 6.0000 1.0000
73.3900 9.0000 1.0000
73.4000 9.0000 1.0000
73.4100 12.0000 1.0000
73.4200 14.0000 1.0000
73.4300 8.0000 1.0000
73.4400 8.0000 1.0000
73.4500 10.0000 1.0000
73.4600 13.0000 1.0000
73.4700 10.0000 1.0000
73.4800 3.0000 1.0000
73.4900 10.0000 1.0000
73.5000 6.0000 1.0000
73.5100 9.0000 1.0000
73.5200 12.0000 1.0000
73.5300 4.0000 1.0000
73.5400 11.0000 1.0000
73.5500 13.0000 1.0000
73.5600 10.0000 1.0000
73.5700 12.0000 1.0000
73.5800 6.0000 1.0000
73.5900 5.0000 1.0000
73.6000 6.0000 1.0000
73.6100 4.0000 1.0000
73.6200 14.0000 1.0000
73.6300 9.0000 1.0000
73.6400 9.0000 1.0000
73.6500 14.0000 1.0000
73.6600 11.0000 1.0000
73.6700 10.0000 1.0000
73.6800 16.0000 1.0000
73.6900 8.0000 1.0000
73.7000 9.0000 1.0000
73.7100 14.0000 1.0000
73.7200 9.0000 1.0000
73.7300 9.0000 1.0000
73.7400 13.0000 1.0000
73.7500 6.0000 1.0000
73.7600 7.0000 1.0000
73.7700 10.0000 1.0000
73.7800 9.0000 1.0000
73.7900 4.0000 1.0000
73.8000 12.0000 1.0000
73.8100 8.0000 1.0000
73.8200 11.0000 1.0000
73.8300 11.0000 1.0000
73.8400 10.0000 1.0000
73.8500 7.0000 1.0000
73.8600 6.0000 1.0000
73.8700 14.0000 1.0000
73.8800 6.0000 1.0000
73.8900 12.0000 1.0000
73.9000 13.0000 1.0000
73.9100 8.0000 1.0000
73.9200 5.0000 1.0000
73.9300 3.0000 1.0000
73.9400 15.0000 1.0000
73.9500 4.0000 1.0000
73.9600 7.0000 1.0000
73.9700 14.0000 1.0000
73.9800 7.0000 1.0000
73.9900 11.0000 1.0000
74.0000 9.0000 1.0000
74.0100 13.0000 1.0000
74.0200 10.0000 1.0000
74.0300 6.0000 1.0000
74.0400 12.0000 1.0000
74.0500 14.0000 1.0000
74.0600 9.0000 1.0000
74.0700 16.0000 1.0000
74.0800 10.0000 1.0000
74.0900 6.0000 1.0000
74.1000 5.0000 1.0000
74.1100 13.0000 1.0000
74.1200 8.0000 1.0000
74.1300 7.0000 1.0000
74.1400 19.0000 1.0000
74.1500 4.0000 1.0000
74.1600 8.0000 1.0000
74.1700 11.0000 1.0000
74.1800 6.0000 1.0000
74.1900 5.0000 1.0000
74.2000 7.0000 1.0000
74.2100 7.0000 1.0000
74.2200 10.0000 1.0000
74.2300 11.0000 1.0000
74.2400 12.0000 1.0000
74.2500 5.0000 1.0000
74.2600 8.0000 1.0000
74.2700 14.0000 1.0000
74.2800 11.0000 1.0000
74.2900 9.0000 1.0000
74.3000 12.0000 1.0000
74.3100 8.0000 1.0000
74.3200 5.0000 1.0000
74.3300 11.0000 1.0000
74.3400 4.0000 1.0000
74.3500 8.0000 1.0000
74.3600 12.0000 1.0000
74.3700 11.0000 1.0000
74.3800 8.0000 1.0000
74.3900 5.0000 1.0000
74.4000 9.0000 1.0000
74.4100 6.0000 1.0000
74.4200 9.0000 1.0000
74.4300 18.0000 1.0000
74.4400 4.0000 1.0000
74.4500 6.0000 1.0000
74.4600 2.0000 1.0000
74.4700 6.0000 1.0000
74.4800 11.0000 1.0000
74.4900 9.0000 1.0000
74.5000 7.0000 1.0000
74.5100 10.0000 1.0000
74.5200 8.0000 1.0000
74.5300 14.0000 1.0000
74.5400 11.0000 1.0000
74.5500 6.0000 1.0000
74.5600 9.0000 1.0000
74.5700 12.0000 1.0000
74.5800 12.0000 1.0000
74.5900 9.0000 1.0000
74.6000 11.0000 1.0000
74.6100 8.0000 1.0000
74.6200 15.0000 1.0000
74.6300 10.0000 1.0000
74.6400 7.0000 1.0000
74.6500 3.0000 1.0000
74.6600 11.0000 1.0000
74.6700 9.0000 1.0000
74.6800 5.0000 1.0000
74.6900 13.0000 1.0000
74.7000 3.0000 1.0000
74.7100 14.0000 1.0000
74.7200 8.0000 1.0000
74.7300 11.0000 1.0000
74.7400 8.0000 1.0000
74.7500 12.0000 1.0000
74.7600 7.0000 1.0000
74.7700 8.0000 1.0000
74.7800 9.0000 1.0000
74.7900 10.0000 1.0000
74.8000 9.0000 1.0000
74.8100 7.0000 1.0000
74.8200 7.0000 1.0000
74.8300 10.0000 1.0000
74.8400 7.0000 1.0000
74.8500 10.0000 1.0000
74.8600 12.0000 1.0000
74.8700 10.0000 1.0000
74.8800 6.0000 1.0000
74.8900 15.0000 1.0000
74.9000 13.0000 1.0000
74.9100 5.0000 1.0000
74.9200 12.0000 1.0000
74.9300 9.0000 1.0000
74.9400 10.0000 1.0000
74.9500 11.0000 1.0000
74.9600 9.0000 1.0000
74.9700 14.0000 1.0000
74.9800 8.0000 1.0000
74.9900 11.0000 1.0000
75.0000 9.0000 1.0000
75.0100 8.0000 1.0000
75.0200 15.0000 1.0000
75.0300 5.0000 1.0000
75.0400 12.0000 1.0000
75.0500 11.0000 1.0000
75.0600 14.0000 1.0000
75.0700 9.0000 1.0000
75.0800 12.0000 1.0000
75.0900 7.0000 1.0000
75.1000 12.0000 1.0000
75.1100 8.0000 1.0000
75.1200 10.0000 1.0000
75.1300 11.0000 1.0000
75.1400 7.0000 1.0000
75.1500 13.0000 1.0000
75.1600 14.0000 1.0000
75.1700 5.0000 1.0000
75.1800 6.0000 1.0000
75.1900 13.0000 1.0000
75.2000 8.0000 1.0000
75.2100 12.0000 1.0000
75.2200 6.0000 1.0000
75.2300 9.0000 1.0000
75.2400 9.0000 1.0000
75.2500 7.0000 1.0000
75.2600 11.0000 1.0000
75.2700 19.0000 1.0000
75.2800 15.0000 1.0000
75.2900 9.0000 1.0000
75.3000 6.0000 1.0000
75.3100 13.0000 1.0000
75.3200 9.0000 1.0000
75.3300 15.0000 1.0000
75.3400 12.0000 1.0000
75.3500 3.0000 1.0000
75.3600 10.0000 1.0000
75.3700 7.0000 1.0000
75.3800 6.0000 1.0000
75.3900 11.0000 1.0000
75.4000 8.0000 1.0000
75.4100 8.0000 1.0000
75.4200 11.0000 1.0000
75.4300 6.0000 1.0000
75.4400 5.0000 1.0000
75.4500 6.0000 1.0000
75.4600 15.0000 1.0000
75.4700 11.0000 1.0000
75.4800 9.0000 1.0000
75.4900 7.0000 1.0000
75.5000 10.0000 1.0000
75.5100 13.0000 1.0000
75.5200 13.0000 1.0000
75.5300 8.0000 1.0000
75.5400 17.0000 1.0000
75.5500 4.0000 1.0000
75.5600 10.0000 1.0000
75.5700 11.0000 1.0000
75.5800 8.0000 1.0000
75.5900 8.0000 1.0000
75.6000 7.0000 1.0000
75.6100 8.0000 1.0000
75.6200 9.0000 1.0000
75.6300 9.0000 1.0000
75.6400 9.0000 1.0000
75.6500 10.0000 1.0000
75.6600 11.0000 1.0000
75.6700 8.0000 1.0000
75.6800 15.0000 1.0000
75.6900 8.0000 1.0000
75.7000 16.0000 1.0000
75.7100 7.0000 1.0000
75.7200 6.0000 1.0000
75.7300 12.0000 1.0000
75.7400 9.0000 1.0000
75.7500 5.0000 1.0000
75.7600 12.0000 1.0000
75.7700 13.0000 1.0000
75.7800 7.0000 1.0000
75.7900 13.0000 1.0000
75.8000 9.0000 1.0000
75.8100 6.0000 1.0000
75.8200 5.0000 1.0000
75.8300 8.0000 1.0000
75.8400 8.0000 1.0000
75.8500 9.0000 1.0000
75.8600 12.0000 1.0000
75.8700 13.0000 1.0000
75.8800 7.0000 1.0000
75.8900 6.0000 1.0000
75.9000 10.0000 1.0000
75.9100 4.0000 1.0000
75.9200 7.0000 1.0000
75.9300 10.0000 1.0000
75.9400 12.0000 1.0000
75.9500 13.0000 1.0000
75.9600 8.0000 1.0000
75.9700 10.0000 1.0000
75.9800 6.0000 1.0000
75.9900 8.0000 1.0000
76.0000 11.0000 1.0000
76.0100 10.0000 1.0000
76.0200 7.0000 1.0000
76.0300 10.0000 1.0000
76.0400 12.0000 1.0000
76.0500 5.0000 1.0000
76.0600 5.0000 1.0000
76.0700 9.0000 1.0000
76.0800 8.0000 1.0000
76.0900 7.0000 1.0000
76.1000 11.0000 1.0000
76.1100 6.0000 1.0000
76.1200 6.0000 1.0000
76.1300 15.0000 1.0000
76.1400 4.0000 1.0000
76.1500 8.0000 1.0000
76.1600 6.0000 1.0000
76.1700 6.0000 1.0000
76.1800 9.0000 1.0000
76.1900 10.0000 1.0000
76.2000 7.0000 1.0000
76.2100 7.0000 1.0000
76.2200 8.0000 1.0000
76.2300 8.0000 1.0000
76.2400 10.0000 1.0000
76.2500 3.0000 1.0000
76.2600 9.0000 1.0000
76.2700 9.0000 1.0000
76.2800 9.0000 1.0000
76.2900 8.0000 1.0000
76.3000 8.0000 1.0000
76.3100 17.0000 1.0000
76.3200 8.0000 1.0000
76.3300 14.0000 1.0000
76.3400 6.0000 1.0000
76.3500 8.0000 1.0000
76.3600 8.0000 1.0000
76.3700 13.0000 1.0000
76.3800 11.0000 1.0000
76.3900 5.0000 1.0000
76.4000 15.0000 1.0000
76.4100 9.0000 1.0000
76.4200 10.0000 1.0000
76.4300 12.0000 1.0000
76.4400 10.0000 1.0000
76.4500 9.0000 1.0000
76.4600 10.0000 1.0000
76.4700 9.0000 1.0000
76.4800 16.0000 1.0000
76.4900 11.0000 1.0000
76.5000 11.0000 1.0000
76.5100 8.0000 1.0000
76.5200 6.0000 1.0000
76.5300 12.0000 1.0000
76.5400 9.0000 1.0000
76.5500 3.0000 1.0000
76.5600 14.0000 1.0000
76.5700 9.0000 1.0000
76.5800 5.0000 1.0000
76.5900 5.0000 1.0000
76.6000 11.0000 1.0000
76.6100 8.0000 1.0000
76.6200 7.0000 1.0000
76.6300 10.0000 1.0000
76.6400 5.0000 1.0000
76.6500 11.0000 1.0000
76.6600 12.0000 1.0000
76.6700 9.0000 1.0000
76.6800 7.0000 1.0000
76.6900 5.0000 1.0000
76.7000 4.0000 1.0000
76.7100 7.0000 1.0000
76.7200 6.0000 1.0000
76.7300 19.0000 1.0000
76.7400 7.0000 1.0000
76.7500 8.0000 1.0000
76.7600 8.0000 1.0000
76.7700 9.0000 1.0000
76.7800 13.0000 1.0000
76.7900 8.0000 1.0000
76.8000 12.0000 1.0000
76.8100 8.0000 1.0000
76.8200 13.0000 1.0000
76.8300 8.0000 1.0000
76.8400 5.0000 1.0000
76.8500 11.0000 1.0000
76.8600 17.0000 1.0000
76.8700 11.0000 1.0000
76.8800 12.0000 1.0000
76.8900 10.0000 1.0000
76.9000 6.0000 1.0000
76.9100 8.0000 1.0000
76.9200 14.0000 1.0000
76.9300 8.0000 1.0000
76.9400 6.0000 1.0000
76.9500 10.0000 1.0000
76.9600 6.0000 1.0000
76.9700 9.0000 1.0000
76.9800 6.0000 1.0000
76.9900 2.0000 1.0000
77.0000 12.0000 1.0000
77.0100 13.0000 1.0000
77.0200 6.0000 1.0000
77.0300 8.0000 1.0000
77.0400 9.0000 1.0000
77.0500 17.0000 1.0000
77.0600 11.0000 1.0000
77.0700 5.0000 1.0000
77.0800 11.0000 1.0000
77.0900 4.0000 1.0000
77.1000 8.0000 1.0000
77.1100 7.0000 1.0000
77.1200 12.0000 1.0000
77.1300 6.0000 1.0000
77.1400 10.0000 1.0000
77.1500 12.0000 1.0000
77.1600 6.0000 1.0000
77.1700 10.0000 1.0000
77.1800 11.0000 1.0000
77.1900 12.0000 1.0000
77.2000 7.0000 1.0000
77.2100 10.0000 1.0000
77.2200 7.0000 1.0000
77.2300 12.0000 1.0000
77.2400 8.0000 1.0000
77.2500 11.0000 1.0000
77.2600 7.0000 1.0000
77.2700 8.0000 1.0000
77.2800 7.0000 1.0000
77.2900 13.0000 1.0000
77.3000 9.0000 1.0000
77.3100 11.0000 1.0000
77.3200 9.0000 1.0000
77.3300 8.0000 1.0000
77.3400 12.0000 1.0000
77.3500 11.0000 1.0000
77.3600 12.0000 1.0000
77.3700 6.0000 1.0000
77.3800 7.0000 1.0000
77.3900 7.0000 1.0000
77.4000 9.0000 1.0000
77.4100 7.0000 1.0000
77.4200 6.0000 1.0000
77.4300 8.0000 1.0000
77.4400 16.0000 1.0000
77.4500 9.0000 1.0000
77.4600 7.0000 1.0000
77.4700 15.0000 1.0000
77.4800 6.0000 1.0000
77.4900 12.0000 1.0000
77.5000 10.0000 1.0000
77.5100 7.0000 1.0000
77.5200 12.0000 1.0000
77.5300 10.0000 1.0000
77.5400 9.0000 1.0000
77.5500 13.0000 1.0000
77.5600 7.0000 1.0000
77.5700 7.0000 1.0000
77.5800 10.0000 1.0000
77.5900 7.0000 1.0000
77.6000 14.0000 1.0000
77.6100 11.0000 1.0000
77.6200 12.0000 1.0000
77.6300 11.0000 1.0000
77.6400 7.0000 1.0000
77.6500 10.0000 1.0000
77.6600 8.0000 1.0000
77.6700 16.0000 1.0000
77.6800 7.0000 1.0000
77.6900 10.0000 1.0000
77.7000 18.0000 1.0000
77.7100 8.0000 1.0000
77.7200 4.0000 1.0000
77.7300 10.0000 1.0000
77.7400 5.0000 1.0000
77.7500 8.0000 1.0000
77.7600 8.0000 1.0000
77.7700 5.0000 1.0000
77.7800 9.0000 1.0000
77.7900 12.0000 1.0000
77.8000 5.0000 1.0000
77.8100 13.0000 1.0000
77.8200 9.0000 1.0000
77.8300 11.0000 1.0000
77.8400 6.0000 1.0000
77.8500 6.0000 1.0000
77.8600 7.0000 1.0000
77.8700 4.0000 1.0000
77.8800 3.0000 1.0000
77.8900 6.0000 1.0000
77.9000 15.0000 1.0000
77.9100 5.0000 1.0000
77.9200 10.0000 1.0000
77.9300 7.0000 1.0000
77.9400 9.0000 1.0000
77.9500 9.0000 1.0000
77.9600 14.0000 1.0000
77.9700 5.0000 1.0000
77.9800 6.0000 1.0000
77.9900 9.0000 1.0000
78.0000 9.0000 1.0000
78.0100 6.0000 1.0000
78.0200 8.0000 1.0000
78.0300 3.0000 1.0000
78.0400 12.0000 1.0000
78.0500 8.0000 1.0000
78.0600 13.0000 1.0000
78.0700 7.0000 1.0000
78.0800 9.0000 1.0000
78.0900 8.0000 1.0000
78.1000 7.0000 1.0000
78.1100 8.0000 1.0000
78.1200 5.0000 1.0000
78.1300 12.0000 1.0000
78.1400 11.0000 1.0000
78.1500 7.0000 1.0000
78.1600 10.0000 1.0000
78.1700 7.0000 1.0000
78.1800 10.0000 1.0000
78.1900 3.0000 1.0000
78.2000 15.0000 1.0000
78.2100 8.0000 1.0000
78.2200 7.0000 1.0000
78.2300 4.0000 1.0000
78.2400 10.0000 1.0000
78.2500 10.0000 1.0000
78.2600 8.0000 1.0000
78.2700 7.0000 1.0000
78.2800 6.0000 1.0000
78.2900 8.0000 1.0000
78.3000 13.0000 1.0000
78.3100 10.0000 1.0000
78.3200 15.0000 1.0000
78.3300 8.0000 1.0000
78.3400 9.0000 1.0000
78.3500 11.0000 1.0000
78.3600 4.0000 1.0000
78.3700 6.0000 1.0000
78.3800 15.0000 1.0000
78.3900 11.0000 1.0000
78.4000 13.0000 1.0000
78.4100 16.0000 1.0000
78.4200 9.0000 1.0000
78.4300 11.0000 1.0000
78.4400 8.0000 1.0000
78.4500 9.0000 1.0000
78.4600 11.0000 1.0000
78.4700 8.0000 1.0000
78.4800 10.0000 1.0000
78.4900 7.0000 1.0000
78.5000 7.0000 1.0000
78.5100 11.0000 1.0000
78.5200 10.0000 1.0000
78.5300 12.0000 1.0000
78.5400 12.0000 1.0000
78.5500 6.0000 1.0000
78.5600 7.0000 1.0000
78.5700 7.0000 1.0000
78.5800 9.0000 1.0000
78.5900 8.0000 1.0000
78.6000 8.0000 1.0000
78.6100 12.0000 1.0000
78.6200 6.0000 1.0000
78.6300 8.0000 1.0000
78.6400 8.0000 1.0000
78.6500 7.0000 1.0000
78.6600 3.0000 1.0000
78.6700 9.0000 1.0000
78.6800 13.0000 1.0000
78.6900 12.0000 1.0000
78.7000 10.0000 1.0000
78.7100 4.0000 1.0000
78.7200 6.0000 1.0000
78.7300 5.0000 1.0000
78.7400 9.0000 1.0000
78.7500 3.0000 1.0000
78.7600 10.0000 1.0000
78.7700 5.0000 1.0000
78.7800 13.0000 1.0000
78.7900 19.0000 1.0000
78.8000 10.0000 1.0000
78.8100 10.0000 1.0000
78.8200 9.0000 1.0000
78.8300 5.0000 1.0000
78.8400 4.0000 1.0000
78.8500 9.0000 1.0000
78.8600 10.0000 1.0000
78.8700 4.0000 1.0000
78.8800 14.0000 1.0000
78.8900 5.0000 1.0000
78.9000 6.0000 1.0000
78.9100 17.0000 1.0000
78.9200 9.0000 1.0000
78.9300 7.0000 1.0000
78.9400 10.0000 1.0000
78.9500 15.0000 1.0000
78.9600 10.0000 1.0000
78.9700 15.0000 1.0000
78.9800 13.0000 1.0000
78.9900 5.0000 1.0000
79.0000 12.0000 1.0000
79.0100 14.0000 1.0000
79.0200 9.0000 1.0000
79.0300 7.0000 1.0000
79.0400 14.0000 1.0000
79.0500 11.0000 1.0000
79.0600 10.0000 1.0000
79.0700 13.0000 1.0000
79.0800 11.0000 1.0000
79.0900 13.0000 1.0000
79.1000 10.0000 1.0000
79.1100 6.0000 1.0000
79.1200 12.0000 1.0000
79.1300 9.0000 1.0000
79.1400 11.0000 1.0000
79.1500 11.0000 1.0000
79.1600 7.0000 1.0000
79.1700 10.0000 1.0000
79.1800 8.0000 1.0000
79.1900 12.0000 1.0000
79.2000 7.0000 1.0000
79.2100 12.0000 1.0000
79.2200 9.0000 1.0000
79.2300 9.0000 1.0000
79.2400 9.0000 1.0000
79.2500 19.0000 1.0000
79.2600 5.0000 1.0000
79.2700 8.0000 1.0000
79.2800 8.0000 1.0000
79.2900 13.0000 1.0000
79.3000 8.0000 1.0000
79.3100 5.0000 1.0000
79.3200 6.0000 1.0000
79.3300 7.0000 1.0000
79.3400 5.0000 1.0000
79.3500 14.0000 1.0000
79.3600 6.0000 1.0000
79.3700 9.0000 1.0000
79.3800 6.0000 1.0000
79.3900 6.0000 1.0000
79.4000 6.0000 1.0000
79.4100 7.0000 1.0000
79.4200 8.0000 1.0000
79.4300 9.0000 1.0000
79.4400 8.0000 1.0000
79.4500 10.0000 1.0000
79.4600 10.0000 1.0000
79.4700 10.0000 1.0000
79.4800 7.0000 1.0000
79.4900 9.0000 1.0000
79.5000 7.0000 1.0000
79.5100 9.0000 1.0000
79.5200 8.0000 1.0000
79.5300 8.0000 1.0000
79.5400 11.0000 1.0000
79.5500 9.0000 1.0000
79.5600 8.0000 1.0000
79.5700 14.0000 1.0000
79.5800 9.0000 1.0000
79.5900 9.0000 1.0000
79.6000 9.0000 1.0000
79.6100 9.0000 1.0000
79.6200 8.0000 1.0000
79.6300 9.0000 1.0000
79.6400 6.0000 1.0000
79.6500 8.0000 1.0000
79.6600 8.0000 1.0000
79.6700 11.0000 1.0000
79.6800 12.0000 1.0000
79.6900 3.0000 1.0000
79.7000 4.0000 1.0000
79.7100 15.0000 1.0000
79.7200 8.0000 1.0000
79.7300 12.0000 1.0000
79.7400 11.0000 1.0000
79.7500 5.0000 1.0000
79.7600 11.0000 1.0000
79.7700 10.0000 1.0000
79.7800 6.0000 1.0000
79.7900 11.0000 1.0000
79.8000 10.0000 1.0000
79.8100 2.0000 1.0000
79.8200 10.0000 1.0000
79.8300 6.0000 1.0000
79.8400 11.0000 1.0000
79.8500 14.0000 1.0000
79.8600 10.0000 1.0000
79.8700 8.0000 1.0000
79.8800 8.0000 1.0000
79.8900 14.0000 1.0000
79.9000 9.0000 1.0000
79.9100 9.0000 1.0000
79.9200 9.0000 1.0000
79.9300 8.0000 1.0000
79.9400 13.0000 1.0000
79.9500 8.0000 1.0000
79.9600 14.0000 1.0000
79.9700 15.0000 1.0000
79.9800 10.0000 1.0000
79.9900 3.0000 1.0000
80.0000 5.0000 1.0000
*RAS_INT_END
*RAS_DATA_END
