*RAS_DATA_START
*RAS_HEADER_START
*DISP_FMT_X "%.2f"
*DISP_FMT_Y "%.0f"
*DISP_FULLSCALE "19513530.8928000000"
*DISP_LINE_COLOR "255.0000000000"
*DISP_LINE_STYLE "0.0000000000"
*DISP_LINE_WIDTH "0.2500000000"
*DISP_NOTE "Collected Data-116"
*DISP_OFFSET_Y "0.0000000000"
*DISP_PEAKSEARCH_UNIT_Y "cps"
*DISP_RANGE_BOTTOM "0.0000000000"
*DISP_RANGE_LEFT "20.0000000000"
*DISP_RANGE_LOGCUTOFF "0.0100000000"
*DISP_RANGE_RIGHT "80.0000000000"
*DISP_RANGE_TOP "19513530.8928000000"
*DISP_SCALE_MODE_Y "0.0000000000"
*DISP_TAB_NAME "2-Theta/Omega"
*DISP_TITLE_Y "Intensity"
*DISP_UNIT_Y "cps"
*DISP_WINDOW_NAME "MSG_MACROENGINE"
*FILE_COMMENT " "
*FILE_MD5 ""
*FILE_MEMO " "
*FILE_OPERATOR "dell"
*FILE_PART_ID "MEAS_KHP2_00061"
*FILE_SAMPLE " "
*FILE_TYPE "RAS_RAW"
*FILE_USERGROUP "System Manager"
*FILE_VERSION "1.0000000000"
*HW_ATTACHMENT_ID "ATT0022"
*HW_ATTACHMENT_NAME "RxRy|RxRy"
*HW_COUNTER_ID-0 "CUT0021"
*HW_COUNTER_ID-1 "CUT0020"
*HW_COUNTER_ID-2 ""
*HW_COUNTER_ID-3 "CSL0021"
*HW_COUNTER_ID-4 "CMC0021"
*HW_COUNTER_NAME-0 "SC-70|SC-70"
*HW_COUNTER_NAME-1 "None|None"
*HW_COUNTER_NAME-2 ""
*HW_COUNTER_NAME-3 "BBM|BBM"
*HW_COUNTER_NAME-4 "検出器モノクロメータ|Detector monochromator"
*HW_COUNTER_SELECT_NAME "SC-70|SC-70"
*HW_ECP_HV "671.0000000000"
*HW_ECP_HV_UNIT "V"
*HW_GONIOMETER_ID "GON0024"
*HW_GONIOMETER_NAME "SmartLab(In-plane)|SmartLab(In-plane)"
*HW_GONIOMETER_RADIUS-0 "90.0"
*HW_GONIOMETER_RADIUS-1 "114.0"
*HW_GONIOMETER_RADIUS-2 "190.0"
*HW_GONIOMETER_RADIUS-3 "300.0"
*HW_GONIOMETER_RADIUS-4 "187.0"
*HW_GONIOMETER_RADIUS-5 "300.0"
*HW_GONIOMETER_RADIUS-6 "113.0"
*HW_GONIOMETER_RADIUS-7 "331.0"
*HW_I_OPT_ID-0 "CBO0021"
*HW_I_OPT_ID-1 "ICR0023"
*HW_I_OPT_ID-2 "ISL0021"
*HW_I_OPT_ID-3 "ISO0021"
*HW_I_OPT_ID-4 "IAD0021"
*HW_I_OPT_ID-5 "IPR0001"
*HW_I_OPT_NAME-0 "CBOユニット|CBO unit"
*HW_I_OPT_NAME-1 "標準入射光学ユニット|Standard incident optical unit"
*HW_I_OPT_NAME-2 "標準入射スリットボックス|Standard incident slit box"
*HW_I_OPT_NAME-3 "入射平行スリット|Incident parallel slit"
*HW_I_OPT_NAME-4 "長手制限スリット|Length limiting slit"
*HW_I_OPT_NAME-5 "None|None"
*HW_R_ATTENUATER_AUTOMODE "1"
*HW_R_OPT_ID-0 "RSS0021"
*HW_R_OPT_ID-1 "RCR0022"
*HW_R_OPT_ID-2 "RSO0021"
*HW_R_OPT_ID-3 "RRS0021"
*HW_R_OPT_ID-4 "ATN0021"
*HW_R_OPT_ID-5 "RFL0021"
*HW_R_OPT_ID-6 "RAD0021"
*HW_R_OPT_NAME-0 "標準受光スリットボックス1|Standard receiving slit box # 1"
*HW_R_OPT_NAME-1 "標準受光光学ユニット1|Standard receiving unit # 1"
*HW_R_OPT_NAME-2 "標準受光光学ユニット2|Standard receiving optical unit # 2"
*HW_R_OPT_NAME-3 "標準受光スリットボックス2|Standard receiving slit box # 2"
*HW_R_OPT_NAME-4 "標準アッテネータ|Standard Attenuator"
*HW_R_OPT_NAME-5 "Cu Kβ|Cu K-beta"
*HW_R_OPT_NAME-6 "調整用受光スリット|Alignment receiving slit"
*HW_SAMPLE_HOLDER_ID "SMP0026"
*HW_SAMPLE_HOLDER_NAME "Z-φステージ|Z-Phi Stage"
*HW_XG_CURRENT_MAX "200"
*HW_XG_CURRENT_MIN "10"
*HW_XG_CURRENT_RESOLUTION "2"
*HW_XG_CURRENT_UNIT "mA"
*HW_XG_FOCUS ""
*HW_XG_FOCUS_TYPE "Normal"
*HW_XG_ID ""
*HW_XG_NAME "9kW 開放管(45kV 200mA ID:1700)|9kW Rotating anode(45kV 200mA ID:1700)"
*HW_XG_TARGET_ATOMIC_NUMBER "29.0000000000"
*HW_XG_TARGET_NAME "Cu"
*HW_XG_TYPE "Rota"
*HW_XG_VOLTAGE_MAX "45"
*HW_XG_VOLTAGE_MIN "20"
*HW_XG_VOLTAGE_RESOLUTION "2"
*HW_XG_VOLTAGE_UNIT "kV"
*HW_XG_WATT_MAX "9"
*HW_XG_WATT_UNIT "kW"
*HW_XG_WAVE_LENGTH_ALPHA1 "1.540593"
*HW_XG_WAVE_LENGTH_ALPHA2 "1.544414"
*HW_XG_WAVE_LENGTH_BETA "1.392250"
*MEAS_COND_AXIS_NAME-0 "Theta/2-Theta"
*MEAS_COND_AXIS_NAME-1 "2-Theta"
*MEAS_COND_AXIS_NAME-2 "Omega"
*MEAS_COND_AXIS_NAME-3 "Phi"
*MEAS_COND_AXIS_NAME-4 "Z"
*MEAS_COND_AXIS_NAME-5 "Rx"
*MEAS_COND_AXIS_NAME-6 "Ry"
*MEAS_COND_AXIS_NAME-7 "2-Theta/Omega"
*MEAS_COND_AXIS_NAME-8 "2-ThetaChi"
*MEAS_COND_AXIS_NAME-9 "2-ThetaChi/Phi"
*MEAS_COND_AXIS_NAME-10 "Alpha"
*MEAS_COND_AXIS_NAME-11 "Beta"
*MEAS_COND_AXIS_NAME-12 "Theta_s"
*MEAS_COND_AXIS_NAME-13 "Theta_d"
*MEAS_COND_AXIS_NAME-14 "Ts"
*MEAS_COND_AXIS_NAME-15 "CBO selection slit"
*MEAS_COND_AXIS_NAME-16 "M"
*MEAS_COND_AXIS_NAME-17 "Incident parallel slit"
*MEAS_COND_AXIS_NAME-18 "Incident slit"
*MEAS_COND_AXIS_NAME-19 ""
*MEAS_COND_AXIS_NAME-20 "Zs"
*MEAS_COND_AXIS_NAME-21 "Incident monochromator"
*MEAS_COND_AXIS_NAME-22 "Length limiting slit"
*MEAS_COND_AXIS_NAME-23 "Center slit"
*MEAS_COND_AXIS_NAME-24 "Filter"
*MEAS_COND_AXIS_NAME-25 "Receiving slit # 1"
*MEAS_COND_AXIS_NAME-26 "Receiving slit # 2"
*MEAS_COND_AXIS_NAME-27 "Receiving optical device"
*MEAS_COND_AXIS_NAME-28 "Receiving parallel slit"
*MEAS_COND_AXIS_NAME-29 "Alignment receiving slit"
*MEAS_COND_AXIS_NAME-30 ""
*MEAS_COND_AXIS_NAME-31 ""
*MEAS_COND_AXIS_NAME-32 "Zd"
*MEAS_COND_AXIS_NAME-33 "Attenuator"
*MEAS_COND_AXIS_NAME-34 "Diffracted beam monochromator"
*MEAS_COND_AXIS_NAME-35 "Monochromator slit"
*MEAS_COND_AXIS_NAME-36 "2-ThetaB"
*MEAS_COND_AXIS_NAME-37 "Primary beam"
*MEAS_COND_AXIS_NAME-38 "HV"
*MEAS_COND_AXIS_NAME-39 "PHA"
*MEAS_COND_AXIS_NAME_INTERNAL-0 "TwoThetaTheta"
*MEAS_COND_AXIS_NAME_INTERNAL-1 "TwoTheta"
*MEAS_COND_AXIS_NAME_INTERNAL-2 "Omega"
*MEAS_COND_AXIS_NAME_INTERNAL-3 "Phi"
*MEAS_COND_AXIS_NAME_INTERNAL-4 "Z"
*MEAS_COND_AXIS_NAME_INTERNAL-5 "Rx"
*MEAS_COND_AXIS_NAME_INTERNAL-6 "Ry"
*MEAS_COND_AXIS_NAME_INTERNAL-7 "TwoThetaOmega"
*MEAS_COND_AXIS_NAME_INTERNAL-8 "TwoThetaChi"
*MEAS_COND_AXIS_NAME_INTERNAL-9 "TwoThetaChiPhi"
*MEAS_COND_AXIS_NAME_INTERNAL-10 "Alpha"
*MEAS_COND_AXIS_NAME_INTERNAL-11 "Beta"
*MEAS_COND_AXIS_NAME_INTERNAL-12 "ThetaS"
*MEAS_COND_AXIS_NAME_INTERNAL-13 "ThetaD"
*MEAS_COND_AXIS_NAME_INTERNAL-14 "Ts"
*MEAS_COND_AXIS_NAME_INTERNAL-15 "CBO"
*MEAS_COND_AXIS_NAME_INTERNAL-16 "CBO-M"
*MEAS_COND_AXIS_NAME_INTERNAL-17 "IncidentSollerSlit"
*MEAS_COND_AXIS_NAME_INTERNAL-18 "IncidentSlitBox"
*MEAS_COND_AXIS_NAME_INTERNAL-19 "IncidentSlitBox-_Axis"
*MEAS_COND_AXIS_NAME_INTERNAL-20 "Zs"
*MEAS_COND_AXIS_NAME_INTERNAL-21 "IncidentMonochromator"
*MEAS_COND_AXIS_NAME_INTERNAL-22 "IncidentAxdSlit"
*MEAS_COND_AXIS_NAME_INTERNAL-23 "CenterSlit"
*MEAS_COND_AXIS_NAME_INTERNAL-24 "Filter"
*MEAS_COND_AXIS_NAME_INTERNAL-25 "ReceivingSlitBox1"
*MEAS_COND_AXIS_NAME_INTERNAL-26 "ReceivingSlitBox2"
*MEAS_COND_AXIS_NAME_INTERNAL-27 "ReceivingOptics"
*MEAS_COND_AXIS_NAME_INTERNAL-28 "ReceivingSollerSlit"
*MEAS_COND_AXIS_NAME_INTERNAL-29 "ReceivingAxdSlit"
*MEAS_COND_AXIS_NAME_INTERNAL-30 "ReceivingSlitBox1-_Axis"
*MEAS_COND_AXIS_NAME_INTERNAL-31 "ReceivingSlitBox2-_Axis"
*MEAS_COND_AXIS_NAME_INTERNAL-32 "ReceivingSlitBox2-Zd"
*MEAS_COND_AXIS_NAME_INTERNAL-33 "Attenuator"
*MEAS_COND_AXIS_NAME_INTERNAL-34 "CounterMonochromator"
*MEAS_COND_AXIS_NAME_INTERNAL-35 "CounterSlit"
*MEAS_COND_AXIS_NAME_INTERNAL-36 "TwoThetaB"
*MEAS_COND_AXIS_NAME_INTERNAL-37 "IncidentPrimary"
*MEAS_COND_AXIS_NAME_INTERNAL-38 "HV"
*MEAS_COND_AXIS_NAME_INTERNAL-39 "PHA"
*MEAS_COND_AXIS_NAME_MAGICNO-0 "83951616.0000000000"
*MEAS_COND_AXIS_NAME_MAGICNO-1 "268632064.0000000000"
*MEAS_COND_AXIS_NAME_MAGICNO-2 "268500992.0000000000"
*MEAS_COND_AXIS_NAME_MAGICNO-3 "268500992.0000000000"
*MEAS_COND_AXIS_NAME_MAGICNO-4 "285278208.0000000000"
*MEAS_COND_AXIS_NAME_MAGICNO-5 "285278208.0000000000"
*MEAS_COND_AXIS_NAME_MAGICNO-6 "285278208.0000000000"
*MEAS_COND_AXIS_NAME_MAGICNO-7 "83951616.0000000000"
*MEAS_COND_AXIS_NAME_MAGICNO-8 "268632064.0000000000"
*MEAS_COND_AXIS_NAME_MAGICNO-9 "83951616.0000000000"
*MEAS_COND_AXIS_NAME_MAGICNO-10 "17039360.0000000000"
*MEAS_COND_AXIS_NAME_MAGICNO-11 "17039360.0000000000"
*MEAS_COND_AXIS_NAME_MAGICNO-12 "131072.0000000000"
*MEAS_COND_AXIS_NAME_MAGICNO-13 "131072.0000000000"
*MEAS_COND_AXIS_NAME_MAGICNO-14 "318898176.0000000000"
*MEAS_COND_AXIS_NAME_MAGICNO-15 "20971521.0000000000"
*MEAS_COND_AXIS_NAME_MAGICNO-16 "285343744.0000000000"
*MEAS_COND_AXIS_NAME_MAGICNO-17 "20971521.0000000000"
*MEAS_COND_AXIS_NAME_MAGICNO-18 "22020097.0000000000"
*MEAS_COND_AXIS_NAME_MAGICNO-19 "25165824.0000000000"
*MEAS_COND_AXIS_NAME_MAGICNO-20 "318898176.0000000000"
*MEAS_COND_AXIS_NAME_MAGICNO-21 "1.0000000000"
*MEAS_COND_AXIS_NAME_MAGICNO-22 "20971521.0000000000"
*MEAS_COND_AXIS_NAME_MAGICNO-23 "20971521.0000000000"
*MEAS_COND_AXIS_NAME_MAGICNO-24 "20971521.0000000000"
*MEAS_COND_AXIS_NAME_MAGICNO-25 "23068673.0000000000"
*MEAS_COND_AXIS_NAME_MAGICNO-26 "23068673.0000000000"
*MEAS_COND_AXIS_NAME_MAGICNO-27 "20971521.0000000000"
*MEAS_COND_AXIS_NAME_MAGICNO-28 "20971521.0000000000"
*MEAS_COND_AXIS_NAME_MAGICNO-29 "20971521.0000000000"
*MEAS_COND_AXIS_NAME_MAGICNO-30 "25165824.0000000000"
*MEAS_COND_AXIS_NAME_MAGICNO-31 "25165824.0000000000"
*MEAS_COND_AXIS_NAME_MAGICNO-32 "285343744.0000000000"
*MEAS_COND_AXIS_NAME_MAGICNO-33 "17301505.0000000000"
*MEAS_COND_AXIS_NAME_MAGICNO-34 "20971521.0000000000"
*MEAS_COND_AXIS_NAME_MAGICNO-35 "20971521.0000000000"
*MEAS_COND_AXIS_NAME_MAGICNO-36 "17039360.0000000000"
*MEAS_COND_AXIS_NAME_MAGICNO-37 "20971521.0000000000"
*MEAS_COND_AXIS_NAME_MAGICNO-38 "0.0000000000"
*MEAS_COND_AXIS_NAME_MAGICNO-39 "0.0000000000"
*MEAS_COND_AXIS_OFFSET-0 "-"
*MEAS_COND_AXIS_OFFSET-1 "0.9517000000"
*MEAS_COND_AXIS_OFFSET-2 "1.4485000000"
*MEAS_COND_AXIS_OFFSET-3 "0.0000000000"
*MEAS_COND_AXIS_OFFSET-4 "-"
*MEAS_COND_AXIS_OFFSET-5 "-"
*MEAS_COND_AXIS_OFFSET-6 "-"
*MEAS_COND_AXIS_OFFSET-7 "-"
*MEAS_COND_AXIS_OFFSET-8 "0.0000000000"
*MEAS_COND_AXIS_OFFSET-9 "-"
*MEAS_COND_AXIS_OFFSET-10 "-"
*MEAS_COND_AXIS_OFFSET-11 "-"
*MEAS_COND_AXIS_OFFSET-12 "1.4485000000"
*MEAS_COND_AXIS_OFFSET-13 "-0.4968000000"
*MEAS_COND_AXIS_OFFSET-14 "-"
*MEAS_COND_AXIS_OFFSET-15 "-"
*MEAS_COND_AXIS_OFFSET-16 "-"
*MEAS_COND_AXIS_OFFSET-17 "-"
*MEAS_COND_AXIS_OFFSET-18 "-"
*MEAS_COND_AXIS_OFFSET-19 "-"
*MEAS_COND_AXIS_OFFSET-20 "-"
*MEAS_COND_AXIS_OFFSET-21 "-"
*MEAS_COND_AXIS_OFFSET-22 "-"
*MEAS_COND_AXIS_OFFSET-23 "-"
*MEAS_COND_AXIS_OFFSET-24 "-"
*MEAS_COND_AXIS_OFFSET-25 "-"
*MEAS_COND_AXIS_OFFSET-26 "-"
*MEAS_COND_AXIS_OFFSET-27 "-"
*MEAS_COND_AXIS_OFFSET-28 "-"
*MEAS_COND_AXIS_OFFSET-29 "-"
*MEAS_COND_AXIS_OFFSET-30 "-"
*MEAS_COND_AXIS_OFFSET-31 "-"
*MEAS_COND_AXIS_OFFSET-32 "-"
*MEAS_COND_AXIS_OFFSET-33 "-"
*MEAS_COND_AXIS_OFFSET-34 "-"
*MEAS_COND_AXIS_OFFSET-35 "-"
*MEAS_COND_AXIS_OFFSET-36 "-"
*MEAS_COND_AXIS_OFFSET-37 "-"
*MEAS_COND_AXIS_OFFSET-38 "-"
*MEAS_COND_AXIS_OFFSET-39 "-"
*MEAS_COND_AXIS_POSITION-0 "19.9950000000"
*MEAS_COND_AXIS_POSITION-1 "19.9950000000"
*MEAS_COND_AXIS_POSITION-2 "9.9975000000"
*MEAS_COND_AXIS_POSITION-3 "0.0000000000"
*MEAS_COND_AXIS_POSITION-4 "-0.4117000000"
*MEAS_COND_AXIS_POSITION-5 "0.0000000000"
*MEAS_COND_AXIS_POSITION-6 "0.0000000000"
*MEAS_COND_AXIS_POSITION-7 "19.9950000000"
*MEAS_COND_AXIS_POSITION-8 "0.0000000000"
*MEAS_COND_AXIS_POSITION-9 "0.0000000000"
*MEAS_COND_AXIS_POSITION-10 "90.0000000000"
*MEAS_COND_AXIS_POSITION-11 "0.0000000000"
*MEAS_COND_AXIS_POSITION-12 "9.9975000000"
*MEAS_COND_AXIS_POSITION-13 "9.9975000000"
*MEAS_COND_AXIS_POSITION-14 "-0.4998100000"
*MEAS_COND_AXIS_POSITION-15 "PB"
*MEAS_COND_AXIS_POSITION-16 "0.0000000000"
*MEAS_COND_AXIS_POSITION-17 "Soller_slit_5.0deg"
*MEAS_COND_AXIS_POSITION-18 "1.000mm"
*MEAS_COND_AXIS_POSITION-19 "1.0000000000"
*MEAS_COND_AXIS_POSITION-20 "-1.7303100000"
*MEAS_COND_AXIS_POSITION-21 "0.0000000000"
*MEAS_COND_AXIS_POSITION-22 "10.0mm"
*MEAS_COND_AXIS_POSITION-23 "None"
*MEAS_COND_AXIS_POSITION-24 "None"
*MEAS_COND_AXIS_POSITION-25 "1.000mm"
*MEAS_COND_AXIS_POSITION-26 "1.000mm"
*MEAS_COND_AXIS_POSITION-27 "PSA_open"
*MEAS_COND_AXIS_POSITION-28 "Soller_slit_5.0deg"
*MEAS_COND_AXIS_POSITION-29 "None"
*MEAS_COND_AXIS_POSITION-30 "1.0000000000"
*MEAS_COND_AXIS_POSITION-31 "1.0000000000"
*MEAS_COND_AXIS_POSITION-32 "0.0259400000"
*MEAS_COND_AXIS_POSITION-33 "1/10000"
*MEAS_COND_AXIS_POSITION-34 "None"
*MEAS_COND_AXIS_POSITION-35 "None"
*MEAS_COND_AXIS_POSITION-36 "19.9950000000"
*MEAS_COND_AXIS_POSITION-37 "None"
*MEAS_COND_AXIS_POSITION-38 "671.0000000000"
*MEAS_COND_AXIS_POSITION-39 "560.0000000000"
*MEAS_COND_AXIS_UNIT-0 "deg"
*MEAS_COND_AXIS_UNIT-1 "deg"
*MEAS_COND_AXIS_UNIT-2 "deg"
*MEAS_COND_AXIS_UNIT-3 "deg"
*MEAS_COND_AXIS_UNIT-4 "mm"
*MEAS_COND_AXIS_UNIT-5 "deg"
*MEAS_COND_AXIS_UNIT-6 "deg"
*MEAS_COND_AXIS_UNIT-7 "deg"
*MEAS_COND_AXIS_UNIT-8 "deg"
*MEAS_COND_AXIS_UNIT-9 "deg"
*MEAS_COND_AXIS_UNIT-10 "deg"
*MEAS_COND_AXIS_UNIT-11 "deg"
*MEAS_COND_AXIS_UNIT-12 "deg"
*MEAS_COND_AXIS_UNIT-13 "deg"
*MEAS_COND_AXIS_UNIT-14 "mm"
*MEAS_COND_AXIS_UNIT-15 ""
*MEAS_COND_AXIS_UNIT-16 "pulse"
*MEAS_COND_AXIS_UNIT-17 ""
*MEAS_COND_AXIS_UNIT-18 ""
*MEAS_COND_AXIS_UNIT-19 "mm"
*MEAS_COND_AXIS_UNIT-20 "mm"
*MEAS_COND_AXIS_UNIT-21 ""
*MEAS_COND_AXIS_UNIT-22 ""
*MEAS_COND_AXIS_UNIT-23 ""
*MEAS_COND_AXIS_UNIT-24 ""
*MEAS_COND_AXIS_UNIT-25 ""
*MEAS_COND_AXIS_UNIT-26 ""
*MEAS_COND_AXIS_UNIT-27 ""
*MEAS_COND_AXIS_UNIT-28 ""
*MEAS_COND_AXIS_UNIT-29 ""
*MEAS_COND_AXIS_UNIT-30 "mm"
*MEAS_COND_AXIS_UNIT-31 "mm"
*MEAS_COND_AXIS_UNIT-32 "mm"
*MEAS_COND_AXIS_UNIT-33 ""
*MEAS_COND_AXIS_UNIT-34 ""
*MEAS_COND_AXIS_UNIT-35 ""
*MEAS_COND_AXIS_UNIT-36 "deg"
*MEAS_COND_AXIS_UNIT-37 ""
*MEAS_COND_AXIS_UNIT-38 "V"
*MEAS_COND_AXIS_UNIT-39 "mV"
*MEAS_COND_COUNTER_CNTLOSS_CORR "1.0000000000"
*MEAS_COND_COUNTER_PHABASE "560.0000000000"
*MEAS_COND_COUNTER_PHAWINDOW "878.7500000000"
*MEAS_COND_COUNTER_PHA_UNIT "mV"
*MEAS_COND_COUNTER_TAUDIFF "0.2195060000"
*MEAS_COND_COUNTER_TAUINT "0.8147800000"
*MEAS_COND_IRRADIATION_MODE "OFF"
*MEAS_COND_IRRADIATION_WIDTH ""
*MEAS_COND_OPT_ATTR "Medium resolution parallel beam/RS"
*MEAS_COND_OPT_NAME "@Medium resolution PB"
*MEAS_COND_UNSYMMETRIC_MODE "OFF"
*MEAS_COND_XG_CURRENT "100.0000000000"
*MEAS_COND_XG_VOLTAGE "40.0000000000"
*MEAS_COND_XG_WAVE_TYPE "Ka"
*MEAS_DATA_COUNT "6001.0000000000"
*MEAS_SCAN_AXIS_X "2-Theta/Omega"
*MEAS_SCAN_AXIS_X_INTERNAL "TwoThetaOmega"
*MEAS_SCAN_END_TIME "12/11/25 15:02:46"
*MEAS_SCAN_MODE "CONTINUOUS"
*MEAS_SCAN_MONITOR "0"
*MEAS_SCAN_RESOLUTION_X "0.0002"
*MEAS_SCAN_SPEED "12.000000"
*MEAS_SCAN_SPEED_UNIT "deg/min"
*MEAS_SCAN_SPEED_USER "12.0000"
*MEAS_SCAN_START "20.0000000000"
*MEAS_SCAN_START_TIME "12/11/25 14:56:49"
*MEAS_SCAN_STEP "0.0100000000"
*MEAS_SCAN_STOP "80.0000000000"
*MEAS_SCAN_UNIT_X "deg"
*MEAS_SCAN_UNIT_Y "counts"
*RAS_HEADER_END
*RAS_INT_START
20.0000 88.0000 1.0000
20.0100 91.0000 1.0000
20.0200 97.0000 1.0000
20.0300 79.0000 1.0000
20.0400 97.0000 1.0000
20.0500 70.0000 1.0000
20.0600 74.0000 1.0000
20.0700 72.0000 1.0000
20.0800 82.0000 1.0000
20.0900 85.0000 1.0000
20.1000 88.0000 1.0000
20.1100 79.0000 1.0000
20.1200 83.0000 1.0000
20.1300 89.0000 1.0000
20.1400 85.0000 1.0000
20.1500 80.0000 1.0000
20.1600 103.0000 1.0000
20.1700 71.0000 1.0000
20.1800 91.0000 1.0000
20.1900 98.0000 1.0000
20.2000 82.0000 1.0000
20.2100 83.0000 1.0000
20.2200 83.0000 1.0000
20.2300 74.0000 1.0000
20.2400 102.0000 1.0000
20.2500 82.0000 1.0000
20.2600 105.0000 1.0000
20.2700 82.0000 1.0000
20.2800 101.0000 1.0000
20.2900 77.0000 1.0000
20.3000 80.0000 1.0000
20.3100 82.0000 1.0000
20.3200 93.0000 1.0000
20.3300 89.0000 1.0000
20.3400 72.0000 1.0000
20.3500 95.0000 1.0000
20.3600 84.0000 1.0000
20.3700 98.0000 1.0000
20.3800 78.0000 1.0000
20.3900 100.0000 1.0000
20.4000 79.0000 1.0000
20.4100 94.0000 1.0000
20.4200 83.0000 1.0000
20.4300 88.0000 1.0000
20.4400 102.0000 1.0000
20.4500 77.0000 1.0000
20.4600 91.0000 1.0000
20.4700 103.0000 1.0000
20.4800 99.0000 1.0000
20.4900 92.0000 1.0000
20.5000 108.0000 1.0000
20.5100 125.0000 1.0000
20.5200 146.0000 1.0000
20.5300 149.0000 1.0000
20.5400 181.0000 1.0000
20.5500 176.0000 1.0000
20.5600 201.0000 1.0000
20.5700 210.0000 1.0000
20.5800 229.0000 1.0000
20.5900 191.0000 1.0000
20.6000 163.0000 1.0000
20.6100 183.0000 1.0000
20.6200 164.0000 1.0000
20.6300 164.0000 1.0000
20.6400 145.0000 1.0000
20.6500 144.0000 1.0000
20.6600 109.0000 1.0000
20.6700 125.0000 1.0000
20.6800 99.0000 1.0000
20.6900 88.0000 1.0000
20.7000 97.0000 1.0000
20.7100 102.0000 1.0000
20.7200 110.0000 1.0000
20.7300 91.0000 1.0000
20.7400 95.0000 1.0000
20.7500 72.0000 1.0000
20.7600 86.0000 1.0000
20.7700 88.0000 1.0000
20.7800 88.0000 1.0000
20.7900 86.0000 1.0000
20.8000 76.0000 1.0000
20.8100 76.0000 1.0000
20.8200 78.0000 1.0000
20.8300 66.0000 1.0000
20.8400 86.0000 1.0000
20.8500 93.0000 1.0000
20.8600 90.0000 1.0000
20.8700 112.0000 1.0000
20.8800 88.0000 1.0000
20.8900 79.0000 1.0000
20.9000 94.0000 1.0000
20.9100 79.0000 1.0000
20.9200 99.0000 1.0000
20.9300 81.0000 1.0000
20.9400 103.0000 1.0000
20.9500 98.0000 1.0000
20.9600 79.0000 1.0000
20.9700 86.0000 1.0000
20.9800 79.0000 1.0000
20.9900 77.0000 1.0000
21.0000 87.0000 1.0000
21.0100 80.0000 1.0000
21.0200 89.0000 1.0000
21.0300 83.0000 1.0000
21.0400 92.0000 1.0000
21.0500 97.0000 1.0000
21.0600 87.0000 1.0000
21.0700 99.0000 1.0000
21.0800 101.0000 1.0000
21.0900 88.0000 1.0000
21.1000 87.0000 1.0000
21.1100 94.0000 1.0000
21.1200 98.0000 1.0000
21.1300 74.0000 1.0000
21.1400 75.0000 1.0000
21.1500 108.0000 1.0000
21.1600 90.0000 1.0000
21.1700 100.0000 1.0000
21.1800 101.0000 1.0000
21.1900 84.0000 1.0000
21.2000 96.0000 1.0000
21.2100 80.0000 1.0000
21.2200 91.0000 1.0000
21.2300 104.0000 1.0000
21.2400 69.0000 1.0000
21.2500 83.0000 1.0000
21.2600 95.0000 1.0000
21.2700 100.0000 1.0000
21.2800 98.0000 1.0000
21.2900 80.0000 1.0000
21.3000 92.0000 1.0000
21.3100 80.0000 1.0000
21.3200 83.0000 1.0000
21.3300 75.0000 1.0000
21.3400 97.0000 1.0000
21.3500 81.0000 1.0000
21.3600 105.0000 1.0000
21.3700 91.0000 1.0000
21.3800 92.0000 1.0000
21.3900 89.0000 1.0000
21.4000 95.0000 1.0000
21.4100 71.0000 1.0000
21.4200 77.0000 1.0000
21.4300 89.0000 1.0000
21.4400 89.0000 1.0000
21.4500 82.0000 1.0000
21.4600 84.0000 1.0000
21.4700 91.0000 1.0000
21.4800 83.0000 1.0000
21.4900 85.0000 1.0000
21.5000 101.0000 1.0000
21.5100 91.0000 1.0000
21.5200 104.0000 1.0000
21.5300 96.0000 1.0000
21.5400 87.0000 1.0000
21.5500 107.0000 1.0000
21.5600 90.0000 1.0000
21.5700 86.0000 1.0000
21.5800 84.0000 1.0000
21.5900 84.0000 1.0000
21.6000 81.0000 1.0000
21.6100 111.0000 1.0000
21.6200 103.0000 1.0000
21.6300 84.0000 1.0000
21.6400 92.0000 1.0000
21.6500 97.0000 1.0000
21.6600 84.0000 1.0000
21.6700 92.0000 1.0000
21.6800 88.0000 1.0000
21.6900 86.0000 1.0000
21.7000 81.0000 1.0000
21.7100 70.0000 1.0000
21.7200 80.0000 1.0000
21.7300 77.0000 1.0000
21.7400 107.0000 1.0000
21.7500 77.0000 1.0000
21.7600 91.0000 1.0000
21.7700 70.0000 1.0000
21.7800 90.0000 1.0000
21.7900 91.0000 1.0000
21.8000 102.0000 1.0000
21.8100 102.0000 1.0000
21.8200 78.0000 1.0000
21.8300 73.0000 1.0000
21.8400 82.0000 1.0000
21.8500 108.0000 1.0000
21.8600 100.0000 1.0000
21.8700 114.0000 1.0000
21.8800 85.0000 1.0000
21.8900 84.0000 1.0000
21.9000 100.0000 1.0000
21.9100 85.0000 1.0000
21.9200 77.0000 1.0000
21.9300 97.0000 1.0000
21.9400 89.0000 1.0000
21.9500 96.0000 1.0000
21.9600 94.0000 1.0000
21.9700 83.0000 1.0000
21.9800 75.0000 1.0000
21.9900 98.0000 1.0000
22.0000 72.0000 1.0000
22.0100 91.0000 1.0000
22.0200 88.0000 1.0000
22.0300 87.0000 1.0000
22.0400 77.0000 1.0000
22.0500 84.0000 1.0000
22.0600 73.0000 1.0000
22.0700 77.0000 1.0000
22.0800 105.0000 1.0000
22.0900 75.0000 1.0000
22.1000 94.0000 1.0000
22.1100 86.0000 1.0000
22.1200 94.0000 1.0000
22.1300 91.0000 1.0000
22.1400 78.0000 1.0000
22.1500 74.0000 1.0000
22.1600 102.0000 1.0000
22.1700 101.0000 1.0000
22.1800 70.0000 1.0000
22.1900 83.0000 1.0000
22.2000 93.0000 1.0000
22.2100 94.0000 1.0000
22.2200 94.0000 1.0000
22.2300 86.0000 1.0000
22.2400 91.0000 1.0000
22.2500 79.0000 1.0000
22.2600 110.0000 1.0000
22.2700 83.0000 1.0000
22.2800 95.0000 1.0000
22.2900 71.0000 1.0000
22.3000 84.0000 1.0000
22.3100 107.0000 1.0000
22.3200 78.0000 1.0000
22.3300 71.0000 1.0000
22.3400 90.0000 1.0000
22.3500 100.0000 1.0000
22.3600 80.0000 1.0000
22.3700 81.0000 1.0000
22.3800 80.0000 1.0000
22.3900 93.0000 1.0000
22.4000 91.0000 1.0000
22.4100 100.0000 1.0000
22.4200 82.0000 1.0000
22.4300 102.0000 1.0000
22.4400 92.0000 1.0000
22.4500 79.0000 1.0000
22.4600 86.0000 1.0000
22.4700 98.0000 1.0000
22.4800 83.0000 1.0000
22.4900 95.0000 1.0000
22.5000 68.0000 1.0000
22.5100 109.0000 1.0000
22.5200 72.0000 1.0000
22.5300 92.0000 1.0000
22.5400 89.0000 1.0000
22.5500 84.0000 1.0000
22.5600 97.0000 1.0000
22.5700 86.0000 1.0000
22.5800 113.0000 1.0000
22.5900 73.0000 1.0000
22.6000 92.0000 1.0000
22.6100 93.0000 1.0000
22.6200 87.0000 1.0000
22.6300 105.0000 1.0000
22.6400 85.0000 1.0000
22.6500 76.0000 1.0000
22.6600 90.0000 1.0000
22.6700 101.0000 1.0000
22.6800 101.0000 1.0000
22.6900 92.0000 1.0000
22.7000 94.0000 1.0000
22.7100 91.0000 1.0000
22.7200 87.0000 1.0000
22.7300 81.0000 1.0000
22.7400 89.0000 1.0000
22.7500 75.0000 1.0000
22.7600 107.0000 1.0000
22.7700 86.0000 1.0000
22.7800 77.0000 1.0000
22.7900 102.0000 1.0000
22.8000 85.0000 1.0000
22.8100 86.0000 1.0000
22.8200 83.0000 1.0000
22.8300 86.0000 1.0000
22.8400 82.0000 1.0000
22.8500 72.0000 1.0000
22.8600 92.0000 1.0000
22.8700 95.0000 1.0000
22.8800 79.0000 1.0000
22.8900 85.0000 1.0000
22.9000 90.0000 1.0000
22.9100 89.0000 1.0000
22.9200 86.0000 1.0000
22.9300 99.0000 1.0000
22.9400 110.0000 1.0000
22.9500 81.0000 1.0000
22.9600 98.0000 1.0000
22.9700 91.0000 1.0000
22.9800 81.0000 1.0000
22.9900 77.0000 1.0000
23.0000 90.0000 1.0000
23.0100 66.0000 1.0000
23.0200 84.0000 1.0000
23.0300 99.0000 1.0000
23.0400 79.0000 1.0000
23.0500 85.0000 1.0000
23.0600 86.0000 1.0000
23.0700 86.0000 1.0000
23.0800 92.0000 1.0000
23.0900 91.0000 1.0000
23.1000 104.0000 1.0000
23.1100 77.0000 1.0000
23.1200 81.0000 1.0000
23.1300 82.0000 1.0000
23.1400 79.0000 1.0000
23.1500 94.0000 1.0000
23.1600 100.0000 1.0000
23.1700 93.0000 1.0000
23.1800 71.0000 1.0000
23.1900 85.0000 1.0000
23.2000 97.0000 1.0000
23.2100 87.0000 1.0000
23.2200 84.0000 1.0000
23.2300 88.0000 1.0000
23.2400 77.0000 1.0000
23.2500 100.0000 1.0000
23.2600 88.0000 1.0000
23.2700 104.0000 1.0000
23.2800 88.0000 1.0000
23.2900 88.0000 1.0000
23.3000 110.0000 1.0000
23.3100 86.0000 1.0000
23.3200 92.0000 1.0000
23.3300 87.0000 1.0000
23.3400 88.0000 1.0000
23.3500 84.0000 1.0000
23.3600 97.0000 1.0000
23.3700 73.0000 1.0000
23.3800 90.0000 1.0000
23.3900 103.0000 1.0000
23.4000 74.0000 1.0000
23.4100 67.0000 1.0000
23.4200 75.0000 1.0000
23.4300 91.0000 1.0000
23.4400 92.0000 1.0000
23.4500 107.0000 1.0000
23.4600 79.0000 1.0000
23.4700 84.0000 1.0000
23.4800 90.0000 1.0000
23.4900 100.0000 1.0000
23.5000 74.0000 1.0000
23.5100 89.0000 1.0000
23.5200 103.0000 1.0000
23.5300 89.0000 1.0000
23.5400 77.0000 1.0000
23.5500 103.0000 1.0000
23.5600 88.0000 1.0000
23.5700 115.0000 1.0000
23.5800 88.0000 1.0000
23.5900 90.0000 1.0000
23.6000 88.0000 1.0000
23.6100 96.0000 1.0000
23.6200 92.0000 1.0000
23.6300 95.0000 1.0000
23.6400 86.0000 1.0000
23.6500 78.0000 1.0000
23.6600 89.0000 1.0000
23.6700 99.0000 1.0000
23.6800 88.0000 1.0000
23.6900 97.0000 1.0000
23.7000 87.0000 1.0000
23.7100 93.0000 1.0000
23.7200 87.0000 1.0000
23.7300 80.0000 1.0000
23.7400 79.0000 1.0000
23.7500 80.0000 1.0000
23.7600 92.0000 1.0000
23.7700 89.0000 1.0000
23.7800 70.0000 1.0000
23.7900 86.0000 1.0000
23.8000 75.0000 1.0000
23.8100 103.0000 1.0000
23.8200 93.0000 1.0000
23.8300 98.0000 1.0000
23.8400 98.0000 1.0000
23.8500 74.0000 1.0000
23.8600 87.0000 1.0000
23.8700 76.0000 1.0000
23.8800 91.0000 1.0000
23.8900 68.0000 1.0000
23.9000 101.0000 1.0000
23.9100 101.0000 1.0000
23.9200 78.0000 1.0000
23.9300 92.0000 1.0000
23.9400 80.0000 1.0000
23.9500 80.0000 1.0000
23.9600 91.0000 1.0000
23.9700 67.0000 1.0000
23.9800 90.0000 1.0000
23.9900 87.0000 1.0000
24.0000 87.0000 1.0000
24.0100 94.0000 1.0000
24.0200 80.0000 1.0000
24.0300 91.0000 1.0000
24.0400 81.0000 1.0000
24.0500 83.0000 1.0000
24.0600 84.0000 1.0000
24.0700 107.0000 1.0000
24.0800 87.0000 1.0000
24.0900 93.0000 1.0000
24.1000 104.0000 1.0000
24.1100 63.0000 1.0000
24.1200 105.0000 1.0000
24.1300 93.0000 1.0000
24.1400 98.0000 1.0000
24.1500 99.0000 1.0000
24.1600 94.0000 1.0000
24.1700 95.0000 1.0000
24.1800 85.0000 1.0000
24.1900 90.0000 1.0000
24.2000 83.0000 1.0000
24.2100 84.0000 1.0000
24.2200 88.0000 1.0000
24.2300 90.0000 1.0000
24.2400 99.0000 1.0000
24.2500 81.0000 1.0000
24.2600 79.0000 1.0000
24.2700 109.0000 1.0000
24.2800 80.0000 1.0000
24.2900 85.0000 1.0000
24.3000 91.0000 1.0000
24.3100 100.0000 1.0000
24.3200 94.0000 1.0000
24.3300 95.0000 1.0000
24.3400 90.0000 1.0000
24.3500 83.0000 1.0000
24.3600 93.0000 1.0000
24.3700 99.0000 1.0000
24.3800 77.0000 1.0000
24.3900 73.0000 1.0000
24.4000 70.0000 1.0000
24.4100 83.0000 1.0000
24.4200 79.0000 1.0000
24.4300 88.0000 1.0000
24.4400 80.0000 1.0000
24.4500 95.0000 1.0000
24.4600 90.0000 1.0000
24.4700 108.0000 1.0000
24.4800 88.0000 1.0000
24.4900 86.0000 1.0000
24.5000 102.0000 1.0000
24.5100 98.0000 1.0000
24.5200 96.0000 1.0000
24.5300 75.0000 1.0000
24.5400 72.0000 1.0000
24.5500 105.0000 1.0000
24.5600 86.0000 1.0000
24.5700 82.0000 1.0000
24.5800 70.0000 1.0000
24.5900 87.0000 1.0000
24.6000 79.0000 1.0000
24.6100 90.0000 1.0000
24.6200 67.0000 1.0000
24.6300 92.0000 1.0000
24.6400 91.0000 1.0000
24.6500 96.0000 1.0000
24.6600 81.0000 1.0000
24.6700 90.0000 1.0000
24.6800 77.0000 1.0000
24.6900 87.0000 1.0000
24.7000 82.0000 1.0000
24.7100 96.0000 1.0000
24.7200 90.0000 1.0000
24.7300 104.0000 1.0000
24.7400 82.0000 1.0000
24.7500 77.0000 1.0000
24.7600 90.0000 1.0000
24.7700 78.0000 1.0000
24.7800 105.0000 1.0000
24.7900 82.0000 1.0000
24.8000 99.0000 1.0000
24.8100 81.0000 1.0000
24.8200 99.0000 1.0000
24.8300 91.0000 1.0000
24.8400 94.0000 1.0000
24.8500 97.0000 1.0000
24.8600 90.0000 1.0000
24.8700 92.0000 1.0000
24.8800 98.0000 1.0000
24.8900 81.0000 1.0000
24.9000 87.0000 1.0000
24.9100 82.0000 1.0000
24.9200 82.0000 1.0000
24.9300 87.0000 1.0000
24.9400 108.0000 1.0000
24.9500 85.0000 1.0000
24.9600 84.0000 1.0000
24.9700 82.0000 1.0000
24.9800 88.0000 1.0000
24.9900 88.0000 1.0000
25.0000 74.0000 1.0000
25.0100 76.0000 1.0000
25.0200 95.0000 1.0000
25.0300 93.0000 1.0000
25.0400 88.0000 1.0000
25.0500 90.0000 1.0000
25.0600 103.0000 1.0000
25.0700 85.0000 1.0000
25.0800 85.0000 1.0000
25.0900 79.0000 1.0000
25.1000 93.0000 1.0000
25.1100 91.0000 1.0000
25.1200 97.0000 1.0000
25.1300 71.0000 1.0000
25.1400 91.0000 1.0000
25.1500 85.0000 1.0000
25.1600 97.0000 1.0000
25.1700 93.0000 1.0000
25.1800 103.0000 1.0000
25.1900 102.0000 1.0000
25.2000 91.0000 1.0000
25.2100 80.0000 1.0000
25.2200 103.0000 1.0000
25.2300 76.0000 1.0000
25.2400 77.0000 1.0000
25.2500 86.0000 1.0000
25.2600 75.0000 1.0000
25.2700 88.0000 1.0000
25.2800 109.0000 1.0000
25.2900 94.0000 1.0000
25.3000 82.0000 1.0000
25.3100 86.0000 1.0000
25.3200 92.0000 1.0000
25.3300 98.0000 1.0000
25.3400 94.0000 1.0000
25.3500 97.0000 1.0000
25.3600 77.0000 1.0000
25.3700 81.0000 1.0000
25.3800 83.0000 1.0000
25.3900 74.0000 1.0000
25.4000 94.0000 1.0000
25.4100 79.0000 1.0000
25.4200 72.0000 1.0000
25.4300 96.0000 1.0000
25.4400 96.0000 1.0000
25.4500 72.0000 1.0000
25.4600 108.0000 1.0000
25.4700 94.0000 1.0000
25.4800 85.0000 1.0000
25.4900 85.0000 1.0000
25.5000 92.0000 1.0000
25.5100 110.0000 1.0000
25.5200 86.0000 1.0000
25.5300 80.0000 1.0000
25.5400 95.0000 1.0000
25.5500 89.0000 1.0000
25.5600 91.0000 1.0000
25.5700 81.0000 1.0000
25.5800 94.0000 1.0000
25.5900 90.0000 1.0000
25.6000 98.0000 1.0000
25.6100 88.0000 1.0000
25.6200 92.0000 1.0000
25.6300 106.0000 1.0000
25.6400 94.0000 1.0000
25.6500 72.0000 1.0000
25.6600 90.0000 1.0000
25.6700 85.0000 1.0000
25.6800 84.0000 1.0000
25.6900 89.0000 1.0000
25.7000 89.0000 1.0000
25.7100 92.0000 1.0000
25.7200 100.0000 1.0000
25.7300 73.0000 1.0000
25.7400 87.0000 1.0000
25.7500 96.0000 1.0000
25.7600 94.0000 1.0000
25.7700 94.0000 1.0000
25.7800 88.0000 1.0000
25.7900 80.0000 1.0000
25.8000 92.0000 1.0000
25.8100 86.0000 1.0000
25.8200 83.0000 1.0000
25.8300 82.0000 1.0000
25.8400 90.0000 1.0000
25.8500 90.0000 1.0000
25.8600 83.0000 1.0000
25.8700 86.0000 1.0000
25.8800 81.0000 1.0000
25.8900 94.0000 1.0000
25.9000 96.0000 1.0000
25.9100 90.0000 1.0000
25.9200 109.0000 1.0000
25.9300 86.0000 1.0000
25.9400 88.0000 1.0000
25.9500 81.0000 1.0000
25.9600 97.0000 1.0000
25.9700 95.0000 1.0000
25.9800 73.0000 1.0000
25.9900 78.0000 1.0000
26.0000 82.0000 1.0000
26.0100 83.0000 1.0000
26.0200 79.0000 1.0000
26.0300 87.0000 1.0000
26.0400 108.0000 1.0000
26.0500 86.0000 1.0000
26.0600 88.0000 1.0000
26.0700 102.0000 1.0000
26.0800 88.0000 1.0000
26.0900 88.0000 1.0000
26.1000 78.0000 1.0000
26.1100 82.0000 1.0000
26.1200 85.0000 1.0000
26.1300 97.0000 1.0000
26.1400 86.0000 1.0000
26.1500 104.0000 1.0000
26.1600 85.0000 1.0000
26.1700 81.0000 1.0000
26.1800 66.0000 1.0000
26.1900 80.0000 1.0000
26.2000 89.0000 1.0000
26.2100 97.0000 1.0000
26.2200 112.0000 1.0000
26.2300 88.0000 1.0000
26.2400 82.0000 1.0000
26.2500 99.0000 1.0000
26.2600 93.0000 1.0000
26.2700 83.0000 1.0000
26.2800 87.0000 1.0000
26.2900 76.0000 1.0000
26.3000 85.0000 1.0000
26.3100 92.0000 1.0000
26.3200 88.0000 1.0000
26.3300 99.0000 1.0000
26.3400 82.0000 1.0000
26.3500 91.0000 1.0000
26.3600 72.0000 1.0000
26.3700 95.0000 1.0000
26.3800 98.0000 1.0000
26.3900 89.0000 1.0000
26.4000 90.0000 1.0000
26.4100 91.0000 1.0000
26.4200 89.0000 1.0000
26.4300 76.0000 1.0000
26.4400 86.0000 1.0000
26.4500 106.0000 1.0000
26.4600 99.0000 1.0000
26.4700 100.0000 1.0000
26.4800 86.0000 1.0000
26.4900 81.0000 1.0000
26.5000 98.0000 1.0000
26.5100 85.0000 1.0000
26.5200 94.0000 1.0000
26.5300 90.0000 1.0000
26.5400 94.0000 1.0000
26.5500 99.0000 1.0000
26.5600 95.0000 1.0000
26.5700 87.0000 1.0000
26.5800 107.0000 1.0000
26.5900 94.0000 1.0000
26.6000 102.0000 1.0000
26.6100 91.0000 1.0000
26.6200 85.0000 1.0000
26.6300 88.0000 1.0000
26.6400 100.0000 1.0000
26.6500 101.0000 1.0000
26.6600 98.0000 1.0000
26.6700 98.0000 1.0000
26.6800 86.0000 1.0000
26.6900 88.0000 1.0000
26.7000 104.0000 1.0000
26.7100 89.0000 1.0000
26.7200 98.0000 1.0000
26.7300 85.0000 1.0000
26.7400 89.0000 1.0000
26.7500 91.0000 1.0000
26.7600 98.0000 1.0000
26.7700 112.0000 1.0000
26.7800 83.0000 1.0000
26.7900 94.0000 1.0000
26.8000 106.0000 1.0000
26.8100 86.0000 1.0000
26.8200 101.0000 1.0000
26.8300 76.0000 1.0000
26.8400 93.0000 1.0000
26.8500 97.0000 1.0000
26.8600 96.0000 1.0000
26.8700 79.0000 1.0000
26.8800 75.0000 1.0000
26.8900 78.0000 1.0000
26.9000 99.0000 1.0000
26.9100 81.0000 1.0000
26.9200 77.0000 1.0000
26.9300 92.0000 1.0000
26.9400 94.0000 1.0000
26.9500 105.0000 1.0000
26.9600 83.0000 1.0000
26.9700 113.0000 1.0000
26.9800 99.0000 1.0000
26.9900 98.0000 1.0000
27.0000 105.0000 1.0000
27.0100 73.0000 1.0000
27.0200 92.0000 1.0000
27.0300 90.0000 1.0000
27.0400 104.0000 1.0000
27.0500 92.0000 1.0000
27.0600 89.0000 1.0000
27.0700 93.0000 1.0000
27.0800 95.0000 1.0000
27.0900 103.0000 1.0000
27.1000 88.0000 1.0000
27.1100 86.0000 1.0000
27.1200 97.0000 1.0000
27.1300 125.0000 1.0000
27.1400 97.0000 1.0000
27.1500 96.0000 1.0000
27.1600 82.0000 1.0000
27.1700 97.0000 1.0000
27.1800 82.0000 1.0000
27.1900 73.0000 1.0000
27.2000 83.0000 1.0000
27.2100 90.0000 1.0000
27.2200 105.0000 1.0000
27.2300 98.0000 1.0000
27.2400 96.0000 1.0000
27.2500 92.0000 1.0000
27.2600 97.0000 1.0000
27.2700 93.0000 1.0000
27.2800 107.0000 1.0000
27.2900 68.0000 1.0000
27.3000 92.0000 1.0000
27.3100 95.0000 1.0000
27.3200 94.0000 1.0000
27.3300 90.0000 1.0000
27.3400 88.0000 1.0000
27.3500 90.0000 1.0000
27.3600 107.0000 1.0000
27.3700 88.0000 1.0000
27.3800 96.0000 1.0000
27.3900 101.0000 1.0000
27.4000 87.0000 1.0000
27.4100 99.0000 1.0000
27.4200 97.0000 1.0000
27.4300 88.0000 1.0000
27.4400 75.0000 1.0000
27.4500 94.0000 1.0000
27.4600 95.0000 1.0000
27.4700 91.0000 1.0000
27.4800 89.0000 1.0000
27.4900 86.0000 1.0000
27.5000 104.0000 1.0000
27.5100 96.0000 1.0000
27.5200 108.0000 1.0000
27.5300 99.0000 1.0000
27.5400 97.0000 1.0000
27.5500 105.0000 1.0000
27.5600 109.0000 1.0000
27.5700 105.0000 1.0000
27.5800 90.0000 1.0000
27.5900 100.0000 1.0000
27.6000 85.0000 1.0000
27.6100 96.0000 1.0000
27.6200 95.0000 1.0000
27.6300 99.0000 1.0000
27.6400 92.0000 1.0000
27.6500 90.0000 1.0000
27.6600 96.0000 1.0000
27.6700 89.0000 1.0000
27.6800 91.0000 1.0000
27.6900 100.0000 1.0000
27.7000 92.0000 1.0000
27.7100 102.0000 1.0000
27.7200 86.0000 1.0000
27.7300 94.0000 1.0000
27.7400 93.0000 1.0000
27.7500 91.0000 1.0000
27.7600 116.0000 1.0000
27.7700 101.0000 1.0000
27.7800 105.0000 1.0000
27.7900 114.0000 1.0000
27.8000 78.0000 1.0000
27.8100 90.0000 1.0000
27.8200 102.0000 1.0000
27.8300 113.0000 1.0000
27.8400 100.0000 1.0000
27.8500 113.0000 1.0000
27.8600 118.0000 1.0000
27.8700 119.0000 1.0000
27.8800 97.0000 1.0000
27.8900 115.0000 1.0000
27.9000 77.0000 1.0000
27.9100 101.0000 1.0000
27.9200 84.0000 1.0000
27.9300 90.0000 1.0000
27.9400 99.0000 1.0000
27.9500 80.0000 1.0000
27.9600 81.0000 1.0000
27.9700 86.0000 1.0000
27.9800 102.0000 1.0000
27.9900 89.0000 1.0000
28.0000 90.0000 1.0000
28.0100 85.0000 1.0000
28.0200 103.0000 1.0000
28.0300 102.0000 1.0000
28.0400 75.0000 1.0000
28.0500 86.0000 1.0000
28.0600 95.0000 1.0000
28.0700 100.0000 1.0000
28.0800 94.0000 1.0000
28.0900 97.0000 1.0000
28.1000 107.0000 1.0000
28.1100 90.0000 1.0000
28.1200 83.0000 1.0000
28.1300 113.0000 1.0000
28.1400 102.0000 1.0000
28.1500 86.0000 1.0000
28.1600 96.0000 1.0000
28.1700 103.0000 1.0000
28.1800 104.0000 1.0000
28.1900 101.0000 1.0000
28.2000 91.0000 1.0000
28.2100 113.0000 1.0000
28.2200 117.0000 1.0000
28.2300 94.0000 1.0000
28.2400 105.0000 1.0000
28.2500 96.0000 1.0000
28.2600 91.0000 1.0000
28.2700 86.0000 1.0000
28.2800 117.0000 1.0000
28.2900 106.0000 1.0000
28.3000 101.0000 1.0000
28.3100 104.0000 1.0000
28.3200 100.0000 1.0000
28.3300 82.0000 1.0000
28.3400 94.0000 1.0000
28.3500 94.0000 1.0000
28.3600 96.0000 1.0000
28.3700 106.0000 1.0000
28.3800 97.0000 1.0000
28.3900 97.0000 1.0000
28.4000 88.0000 1.0000
28.4100 93.0000 1.0000
28.4200 103.0000 1.0000
28.4300 108.0000 1.0000
28.4400 94.0000 1.0000
28.4500 113.0000 1.0000
28.4600 101.0000 1.0000
28.4700 99.0000 1.0000
28.4800 102.0000 1.0000
28.4900 100.0000 1.0000
28.5000 100.0000 1.0000
28.5100 109.0000 1.0000
28.5200 94.0000 1.0000
28.5300 77.0000 1.0000
28.5400 103.0000 1.0000
28.5500 81.0000 1.0000
28.5600 98.0000 1.0000
28.5700 100.0000 1.0000
28.5800 100.0000 1.0000
28.5900 111.0000 1.0000
28.6000 122.0000 1.0000
28.6100 113.0000 1.0000
28.6200 124.0000 1.0000
28.6300 111.0000 1.0000
28.6400 122.0000 1.0000
28.6500 122.0000 1.0000
28.6600 125.0000 1.0000
28.6700 121.0000 1.0000
28.6800 107.0000 1.0000
28.6900 118.0000 1.0000
28.7000 115.0000 1.0000
28.7100 124.0000 1.0000
28.7200 105.0000 1.0000
28.7300 130.0000 1.0000
28.7400 128.0000 1.0000
28.7500 111.0000 1.0000
28.7600 99.0000 1.0000
28.7700 115.0000 1.0000
28.7800 104.0000 1.0000
28.7900 99.0000 1.0000
28.8000 94.0000 1.0000
28.8100 94.0000 1.0000
28.8200 97.0000 1.0000
28.8300 87.0000 1.0000
28.8400 92.0000 1.0000
28.8500 100.0000 1.0000
28.8600 97.0000 1.0000
28.8700 110.0000 1.0000
28.8800 97.0000 1.0000
28.8900 101.0000 1.0000
28.9000 99.0000 1.0000
28.9100 86.0000 1.0000
28.9200 93.0000 1.0000
28.9300 102.0000 1.0000
28.9400 90.0000 1.0000
28.9500 110.0000 1.0000
28.9600 94.0000 1.0000
28.9700 108.0000 1.0000
28.9800 118.0000 1.0000
28.9900 101.0000 1.0000
29.0000 73.0000 1.0000
29.0100 117.0000 1.0000
29.0200 93.0000 1.0000
29.0300 122.0000 1.0000
29.0400 109.0000 1.0000
29.0500 86.0000 1.0000
29.0600 87.0000 1.0000
29.0700 93.0000 1.0000
29.0800 112.0000 1.0000
29.0900 98.0000 1.0000
29.1000 112.0000 1.0000
29.1100 82.0000 1.0000
29.1200 81.0000 1.0000
29.1300 116.0000 1.0000
29.1400 108.0000 1.0000
29.1500 113.0000 1.0000
29.1600 114.0000 1.0000
29.1700 112.0000 1.0000
29.1800 119.0000 1.0000
29.1900 100.0000 1.0000
29.2000 112.0000 1.0000
29.2100 87.0000 1.0000
29.2200 95.0000 1.0000
29.2300 101.0000 1.0000
29.2400 90.0000 1.0000
29.2500 82.0000 1.0000
29.2600 98.0000 1.0000
29.2700 111.0000 1.0000
29.2800 97.0000 1.0000
29.2900 111.0000 1.0000
29.3000 104.0000 1.0000
29.3100 90.0000 1.0000
29.3200 113.0000 1.0000
29.3300 105.0000 1.0000
29.3400 94.0000 1.0000
29.3500 118.0000 1.0000
29.3600 104.0000 1.0000
29.3700 97.0000 1.0000
29.3800 88.0000 1.0000
29.3900 109.0000 1.0000
29.4000 107.0000 1.0000
29.4100 126.0000 1.0000
29.4200 88.0000 1.0000
29.4300 100.0000 1.0000
29.4400 92.0000 1.0000
29.4500 95.0000 1.0000
29.4600 94.0000 1.0000
29.4700 104.0000 1.0000
29.4800 97.0000 1.0000
29.4900 92.0000 1.0000
29.5000 84.0000 1.0000
29.5100 102.0000 1.0000
29.5200 99.0000 1.0000
29.5300 85.0000 1.0000
29.5400 98.0000 1.0000
29.5500 88.0000 1.0000
29.5600 106.0000 1.0000
29.5700 84.0000 1.0000
29.5800 90.0000 1.0000
29.5900 98.0000 1.0000
29.6000 94.0000 1.0000
29.6100 104.0000 1.0000
29.6200 91.0000 1.0000
29.6300 96.0000 1.0000
29.6400 87.0000 1.0000
29.6500 91.0000 1.0000
29.6600 106.0000 1.0000
29.6700 108.0000 1.0000
29.6800 85.0000 1.0000
29.6900 96.0000 1.0000
29.7000 95.0000 1.0000
29.7100 121.0000 1.0000
29.7200 90.0000 1.0000
29.7300 98.0000 1.0000
29.7400 100.0000 1.0000
29.7500 111.0000 1.0000
29.7600 94.0000 1.0000
29.7700 110.0000 1.0000
29.7800 98.0000 1.0000
29.7900 107.0000 1.0000
29.8000 85.0000 1.0000
29.8100 100.0000 1.0000
29.8200 94.0000 1.0000
29.8300 95.0000 1.0000
29.8400 85.0000 1.0000
29.8500 106.0000 1.0000
29.8600 96.0000 1.0000
29.8700 106.0000 1.0000
29.8800 97.0000 1.0000
29.8900 98.0000 1.0000
29.9000 98.0000 1.0000
29.9100 94.0000 1.0000
29.9200 118.0000 1.0000
29.9300 104.0000 1.0000
29.9400 83.0000 1.0000
29.9500 78.0000 1.0000
29.9600 107.0000 1.0000
29.9700 92.0000 1.0000
29.9800 91.0000 1.0000
29.9900 113.0000 1.0000
30.0000 111.0000 1.0000
30.0100 91.0000 1.0000
30.0200 90.0000 1.0000
30.0300 116.0000 1.0000
30.0400 108.0000 1.0000
30.0500 117.0000 1.0000
30.0600 85.0000 1.0000
30.0700 106.0000 1.0000
30.0800 83.0000 1.0000
30.0900 101.0000 1.0000
30.1000 90.0000 1.0000
30.1100 81.0000 1.0000
30.1200 101.0000 1.0000
30.1300 102.0000 1.0000
30.1400 115.0000 1.0000
30.1500 89.0000 1.0000
30.1600 110.0000 1.0000
30.1700 108.0000 1.0000
30.1800 101.0000 1.0000
30.1900 104.0000 1.0000
30.2000 128.0000 1.0000
30.2100 99.0000 1.0000
30.2200 106.0000 1.0000
30.2300 102.0000 1.0000
30.2400 100.0000 1.0000
30.2500 111.0000 1.0000
30.2600 92.0000 1.0000
30.2700 84.0000 1.0000
30.2800 96.0000 1.0000
30.2900 98.0000 1.0000
30.3000 86.0000 1.0000
30.3100 119.0000 1.0000
30.3200 102.0000 1.0000
30.3300 103.0000 1.0000
30.3400 95.0000 1.0000
30.3500 101.0000 1.0000
30.3600 100.0000 1.0000
30.3700 113.0000 1.0000
30.3800 98.0000 1.0000
30.3900 95.0000 1.0000
30.4000 117.0000 1.0000
30.4100 99.0000 1.0000
30.4200 113.0000 1.0000
30.4300 88.0000 1.0000
30.4400 106.0000 1.0000
30.4500 103.0000 1.0000
30.4600 86.0000 1.0000
30.4700 113.0000 1.0000
30.4800 94.0000 1.0000
30.4900 96.0000 1.0000
30.5000 103.0000 1.0000
30.5100 97.0000 1.0000
30.5200 114.0000 1.0000
30.5300 113.0000 1.0000
30.5400 105.0000 1.0000
30.5500 106.0000 1.0000
30.5600 93.0000 1.0000
30.5700 130.0000 1.0000
30.5800 94.0000 1.0000
30.5900 98.0000 1.0000
30.6000 106.0000 1.0000
30.6100 121.0000 1.0000
30.6200 93.0000 1.0000
30.6300 110.0000 1.0000
30.6400 96.0000 1.0000
30.6500 98.0000 1.0000
30.6600 92.0000 1.0000
30.6700 100.0000 1.0000
30.6800 97.0000 1.0000
30.6900 98.0000 1.0000
30.7000 105.0000 1.0000
30.7100 83.0000 1.0000
30.7200 120.0000 1.0000
30.7300 90.0000 1.0000
30.7400 110.0000 1.0000
30.7500 93.0000 1.0000
30.7600 109.0000 1.0000
30.7700 99.0000 1.0000
30.7800 100.0000 1.0000
30.7900 102.0000 1.0000
30.8000 107.0000 1.0000
30.8100 101.0000 1.0000
30.8200 141.0000 1.0000
30.8300 123.0000 1.0000
30.8400 132.0000 1.0000
30.8500 128.0000 1.0000
30.8600 110.0000 1.0000
30.8700 140.0000 1.0000
30.8800 143.0000 1.0000
30.8900 154.0000 1.0000
30.9000 152.0000 1.0000
30.9100 154.0000 1.0000
30.9200 170.0000 1.0000
30.9300 191.0000 1.0000
30.9400 169.0000 1.0000
30.9500 204.0000 1.0000
30.9600 172.0000 1.0000
30.9700 187.0000 1.0000
30.9800 191.0000 1.0000
30.9900 201.0000 1.0000
31.0000 195.0000 1.0000
31.0100 222.0000 1.0000
31.0200 284.0000 1.0000
31.0300 267.0000 1.0000
31.0400 344.0000 1.0000
31.0500 365.0000 1.0000
31.0600 465.0000 1.0000
31.0700 590.0000 1.0000
31.0800 675.0000 1.0000
31.0900 867.0000 1.0000
31.1000 1017.0000 1.0000
31.1100 1291.0000 1.0000
31.1200 1538.0000 1.0000
31.1300 1702.0000 1.0000
31.1400 2032.0000 1.0000
31.1500 2233.0000 1.0000
31.1600 2468.0000 1.0000
31.1700 2801.0000 1.0000
31.1800 2898.0000 1.0000
31.1900 3040.0000 1.0000
31.2000 3095.0000 1.0000
31.2100 3086.0000 1.0000
31.2200 2979.0000 1.0000
31.2300 2798.0000 1.0000
31.2400 2613.0000 1.0000
31.2500 2290.0000 1.0000
31.2600 2050.0000 1.0000
31.2700 1746.0000 1.0000
31.2800 1525.0000 1.0000
31.2900 1291.0000 1.0000
31.3000 1136.0000 1.0000
31.3100 920.0000 1.0000
31.3200 774.0000 1.0000
31.3300 652.0000 1.0000
31.3400 583.0000 1.0000
31.3500 535.0000 1.0000
31.3600 417.0000 1.0000
31.3700 370.0000 1.0000
31.3800 346.0000 1.0000
31.3900 336.0000 1.0000
31.4000 287.0000 1.0000
31.4100 289.0000 1.0000
31.4200 272.0000 1.0000
31.4300 232.0000 1.0000
31.4400 238.0000 1.0000
31.4500 248.0000 1.0000
31.4600 231.0000 1.0000
31.4700 240.0000 1.0000
31.4800 262.0000 1.0000
31.4900 224.0000 1.0000
31.5000 208.0000 1.0000
31.5100 198.0000 1.0000
31.5200 242.0000 1.0000
31.5300 220.0000 1.0000
31.5400 214.0000 1.0000
31.5500 210.0000 1.0000
31.5600 221.0000 1.0000
31.5700 223.0000 1.0000
31.5800 224.0000 1.0000
31.5900 230.0000 1.0000
31.6000 231.0000 1.0000
31.6100 204.0000 1.0000
31.6200 208.0000 1.0000
31.6300 239.0000 1.0000
31.6400 218.0000 1.0000
31.6500 215.0000 1.0000
31.6600 232.0000 1.0000
31.6700 210.0000 1.0000
31.6800 230.0000 1.0000
31.6900 244.0000 1.0000
31.7000 208.0000 1.0000
31.7100 209.0000 1.0000
31.7200 219.0000 1.0000
31.7300 241.0000 1.0000
31.7400 225.0000 1.0000
31.7500 228.0000 1.0000
31.7600 222.0000 1.0000
31.7700 247.0000 1.0000
31.7800 201.0000 1.0000
31.7900 210.0000 1.0000
31.8000 246.0000 1.0000
31.8100 219.0000 1.0000
31.8200 251.0000 1.0000
31.8300 239.0000 1.0000
31.8400 203.0000 1.0000
31.8500 224.0000 1.0000
31.8600 246.0000 1.0000
31.8700 217.0000 1.0000
31.8800 249.0000 1.0000
31.8900 230.0000 1.0000
31.9000 241.0000 1.0000
31.9100 248.0000 1.0000
31.9200 232.0000 1.0000
31.9300 261.0000 1.0000
31.9400 247.0000 1.0000
31.9500 251.0000 1.0000
31.9600 249.0000 1.0000
31.9700 232.0000 1.0000
31.9800 239.0000 1.0000
31.9900 234.0000 1.0000
32.0000 241.0000 1.0000
32.0100 229.0000 1.0000
32.0200 245.0000 1.0000
32.0300 233.0000 1.0000
32.0400 247.0000 1.0000
32.0500 252.0000 1.0000
32.0600 253.0000 1.0000
32.0700 272.0000 1.0000
32.0800 239.0000 1.0000
32.0900 234.0000 1.0000
32.1000 243.0000 1.0000
32.1100 255.0000 1.0000
32.1200 267.0000 1.0000
32.1300 257.0000 1.0000
32.1400 268.0000 1.0000
32.1500 246.0000 1.0000
32.1600 263.0000 1.0000
32.1700 232.0000 1.0000
32.1800 303.0000 1.0000
32.1900 272.0000 1.0000
32.2000 278.0000 1.0000
32.2100 255.0000 1.0000
32.2200 294.0000 1.0000
32.2300 273.0000 1.0000
32.2400 273.0000 1.0000
32.2500 265.0000 1.0000
32.2600 323.0000 1.0000
32.2700 277.0000 1.0000
32.2800 309.0000 1.0000
32.2900 309.0000 1.0000
32.3000 287.0000 1.0000
32.3100 322.0000 1.0000
32.3200 298.0000 1.0000
32.3300 306.0000 1.0000
32.3400 322.0000 1.0000
32.3500 312.0000 1.0000
32.3600 303.0000 1.0000
32.3700 316.0000 1.0000
32.3800 329.0000 1.0000
32.3900 336.0000 1.0000
32.4000 315.0000 1.0000
32.4100 331.0000 1.0000
32.4200 315.0000 1.0000
32.4300 358.0000 1.0000
32.4400 341.0000 1.0000
32.4500 346.0000 1.0000
32.4600 350.0000 1.0000
32.4700 379.0000 1.0000
32.4800 357.0000 1.0000
32.4900 331.0000 1.0000
32.5000 392.0000 1.0000
32.5100 333.0000 1.0000
32.5200 400.0000 1.0000
32.5300 388.0000 1.0000
32.5400 361.0000 1.0000
32.5500 392.0000 1.0000
32.5600 387.0000 1.0000
32.5700 374.0000 1.0000
32.5800 373.0000 1.0000
32.5900 374.0000 1.0000
32.6000 412.0000 1.0000
32.6100 431.0000 1.0000
32.6200 407.0000 1.0000
32.6300 412.0000 1.0000
32.6400 459.0000 1.0000
32.6500 453.0000 1.0000
32.6600 484.0000 1.0000
32.6700 441.0000 1.0000
32.6800 435.0000 1.0000
32.6900 470.0000 1.0000
32.7000 513.0000 1.0000
32.7100 452.0000 1.0000
32.7200 529.0000 1.0000
32.7300 503.0000 1.0000
32.7400 523.0000 1.0000
32.7500 536.0000 1.0000
32.7600 491.0000 1.0000
32.7700 559.0000 1.0000
32.7800 555.0000 1.0000
32.7900 591.0000 1.0000
32.8000 557.0000 1.0000
32.8100 621.0000 1.0000
32.8200 621.0000 1.0000
32.8300 600.0000 1.0000
32.8400 627.0000 1.0000
32.8500 639.0000 1.0000
32.8600 690.0000 1.0000
32.8700 695.0000 1.0000
32.8800 731.0000 1.0000
32.8900 711.0000 1.0000
32.9000 766.0000 1.0000
32.9100 785.0000 1.0000
32.9200 822.0000 1.0000
32.9300 920.0000 1.0000
32.9400 968.0000 1.0000
32.9500 1039.0000 1.0000
32.9600 1221.0000 1.0000
32.9700 1321.0000 1.0000
32.9800 1597.0000 1.0000
32.9900 1817.0000 1.0000
33.0000 2027.0000 1.0000
33.0100 2550.0000 1.0000
33.0200 3023.0000 1.0000
33.0300 3381.0000 1.0000
33.0400 3807.0000 1.0000
33.0500 4419.0000 1.0000
33.0600 4754.0000 1.0000
33.0700 5196.0000 1.0000
33.0800 5559.0000 1.0000
33.0900 5974.0000 1.0000
33.1000 6208.0000 1.0000
33.1100 6240.0000 1.0000
33.1200 6382.0000 1.0000
33.1300 6386.0000 1.0000
33.1400 6181.0000 1.0000
33.1500 5895.0000 1.0000
33.1600 5610.0000 1.0000
33.1700 5157.0000 1.0000
33.1800 4586.0000 1.0000
33.1900 4217.0000 1.0000
33.2000 3747.0000 1.0000
33.2100 3280.0000 1.0000
33.2200 3034.0000 1.0000
33.2300 2795.0000 1.0000
33.2400 2544.0000 1.0000
33.2500 2407.0000 1.0000
33.2600 2254.0000 1.0000
33.2700 2327.0000 1.0000
33.2800 2175.0000 1.0000
33.2900 2140.0000 1.0000
33.3000 2244.0000 1.0000
33.3100 2237.0000 1.0000
33.3200 2245.0000 1.0000
33.3300 2442.0000 1.0000
33.3400 2370.0000 1.0000
33.3500 2497.0000 1.0000
33.3600 2485.0000 1.0000
33.3700 2545.0000 1.0000
33.3800 2489.0000 1.0000
33.3900 2534.0000 1.0000
33.4000 2548.0000 1.0000
33.4100 2462.0000 1.0000
33.4200 2362.0000 1.0000
33.4300 2306.0000 1.0000
33.4400 2249.0000 1.0000
33.4500 2035.0000 1.0000
33.4600 2023.0000 1.0000
33.4700 2030.0000 1.0000
33.4800 1967.0000 1.0000
33.4900 1957.0000 1.0000
33.5000 1894.0000 1.0000
33.5100 1956.0000 1.0000
33.5200 1907.0000 1.0000
33.5300 1905.0000 1.0000
33.5400 1816.0000 1.0000
33.5500 1821.0000 1.0000
33.5600 1871.0000 1.0000
33.5700 1869.0000 1.0000
33.5800 1943.0000 1.0000
33.5900 1921.0000 1.0000
33.6000 1922.0000 1.0000
33.6100 1877.0000 1.0000
33.6200 2060.0000 1.0000
33.6300 1920.0000 1.0000
33.6400 1940.0000 1.0000
33.6500 2064.0000 1.0000
33.6600 1955.0000 1.0000
33.6700 2077.0000 1.0000
33.6800 2096.0000 1.0000
33.6900 2082.0000 1.0000
33.7000 2076.0000 1.0000
33.7100 2107.0000 1.0000
33.7200 2167.0000 1.0000
33.7300 2204.0000 1.0000
33.7400 2235.0000 1.0000
33.7500 2177.0000 1.0000
33.7600 2314.0000 1.0000
33.7700 2262.0000 1.0000
33.7800 2203.0000 1.0000
33.7900 2273.0000 1.0000
33.8000 2394.0000 1.0000
33.8100 2369.0000 1.0000
33.8200 2370.0000 1.0000
33.8300 2338.0000 1.0000
33.8400 2381.0000 1.0000
33.8500 2371.0000 1.0000
33.8600 2443.0000 1.0000
33.8700 2423.0000 1.0000
33.8800 2474.0000 1.0000
33.8900 2541.0000 1.0000
33.9000 2562.0000 1.0000
33.9100 2559.0000 1.0000
33.9200 2586.0000 1.0000
33.9300 2697.0000 1.0000
33.9400 2594.0000 1.0000
33.9500 2646.0000 1.0000
33.9600 2694.0000 1.0000
33.9700 2738.0000 1.0000
33.9800 2740.0000 1.0000
33.9900 2731.0000 1.0000
34.0000 2818.0000 1.0000
34.0100 2780.0000 1.0000
34.0200 2817.0000 1.0000
34.0300 2904.0000 1.0000
34.0400 2981.0000 1.0000
34.0500 3021.0000 1.0000
34.0600 2992.0000 1.0000
34.0700 2928.0000 1.0000
34.0800 3079.0000 1.0000
34.0900 3050.0000 1.0000
34.1000 3047.0000 1.0000
34.1100 3131.0000 1.0000
34.1200 3186.0000 1.0000
34.1300 3268.0000 1.0000
34.1400 3246.0000 1.0000
34.1500 3360.0000 1.0000
34.1600 3508.0000 1.0000
34.1700 3356.0000 1.0000
34.1800 3516.0000 1.0000
34.1900 3616.0000 1.0000
34.2000 3693.0000 1.0000
34.2100 3734.0000 1.0000
34.2200 3813.0000 1.0000
34.2300 3828.0000 1.0000
34.2400 4020.0000 1.0000
34.2500 4078.0000 1.0000
34.2600 4164.0000 1.0000
34.2700 4448.0000 1.0000
34.2800 4600.0000 1.0000
34.2900 4608.0000 1.0000
34.3000 4879.0000 1.0000
34.3100 5143.0000 1.0000
34.3200 5451.0000 1.0000
34.3300 5717.0000 1.0000
34.3400 6345.0000 1.0000
34.3500 6960.0000 1.0000
34.3600 7383.0000 1.0000
34.3700 8076.0000 1.0000
34.3800 9077.0000 1.0000
34.3900 10186.0000 1.0000
34.4000 11421.0000 1.0000
34.4100 13012.0000 1.0000
34.4200 15407.0000 1.0000
34.4300 17936.0000 1.0000
34.4400 413.0000 46.6956
34.4500 563.0000 46.6956
34.4600 701.0000 46.6956
34.4700 934.0000 46.6956
34.4800 1266.0000 46.6956
34.4900 1470.0000 46.6956
34.5000 1995.9999 46.6956
34.5100 2512.0000 46.6956
34.5200 3359.0000 46.6956
34.5300 4229.0000 46.6956
34.5400 5220.0000 46.6956
34.5500 6593.0000 46.6956
34.5600 7871.0000 46.6956
34.5700 9514.0000 46.6956
34.5800 11109.0000 46.6956
34.5900 12538.0000 46.6956
34.6000 13982.0000 46.6956
34.6100 15542.0000 46.6956
34.6200 16606.0000 46.6956
34.6300 16902.0000 46.6956
34.6400 17412.0000 46.6956
34.6500 16746.0000 46.6956
34.6600 16031.0010 46.6956
34.6700 15313.0010 46.6956
34.6800 13795.0000 46.6956
34.6900 13135.0000 46.6956
34.7000 11975.0000 46.6956
34.7100 10883.0000 46.6956
34.7200 10224.0000 46.6956
34.7300 9306.0000 46.6956
34.7400 8071.0000 46.6956
34.7500 7169.0000 46.6956
34.7600 5793.0005 46.6956
34.7700 4775.0000 46.6956
34.7800 4064.0000 46.6956
34.7900 3318.0000 46.6956
34.8000 2683.0000 46.6956
34.8100 2003.0000 46.6956
34.8200 1663.0000 46.6956
34.8300 1254.0000 46.6956
34.8400 932.0001 46.6956
34.8500 793.9999 46.6956
34.8600 633.0000 46.6956
34.8700 494.0000 46.6956
34.8800 377.0000 46.6956
34.8900 320.0000 46.6956
34.9000 250.0000 46.6956
34.9100 10518.0000 1.0000
34.9200 9139.0000 1.0000
34.9300 7959.0000 1.0000
34.9400 7272.0000 1.0000
34.9500 6644.0000 1.0000
34.9600 6117.0000 1.0000
34.9700 5647.0000 1.0000
34.9800 5235.0000 1.0000
34.9900 4890.0000 1.0000
35.0000 4791.0000 1.0000
35.0100 4335.0000 1.0000
35.0200 4204.0000 1.0000
35.0300 3961.0000 1.0000
35.0400 3808.0000 1.0000
35.0500 3679.0000 1.0000
35.0600 3490.0000 1.0000
35.0700 3315.0000 1.0000
35.0800 3137.0000 1.0000
35.0900 3070.0000 1.0000
35.1000 2970.0000 1.0000
35.1100 2829.0000 1.0000
35.1200 2776.0000 1.0000
35.1300 2658.0000 1.0000
35.1400 2499.0000 1.0000
35.1500 2542.0000 1.0000
35.1600 2469.0000 1.0000
35.1700 2310.0000 1.0000
35.1800 2319.0000 1.0000
35.1900 2177.0000 1.0000
35.2000 2064.0000 1.0000
35.2100 2088.0000 1.0000
35.2200 2006.0000 1.0000
35.2300 1901.0000 1.0000
35.2400 1875.0000 1.0000
35.2500 1892.0000 1.0000
35.2600 1728.0000 1.0000
35.2700 1750.0000 1.0000
35.2800 1700.0000 1.0000
35.2900 1603.0000 1.0000
35.3000 1634.0000 1.0000
35.3100 1562.0000 1.0000
35.3200 1611.0000 1.0000
35.3300 1548.0000 1.0000
35.3400 1518.0000 1.0000
35.3500 1396.0000 1.0000
35.3600 1387.0000 1.0000
35.3700 1359.0000 1.0000
35.3800 1324.0000 1.0000
35.3900 1325.0000 1.0000
35.4000 1277.0000 1.0000
35.4100 1275.0000 1.0000
35.4200 1208.0000 1.0000
35.4300 1229.0000 1.0000
35.4400 1164.0000 1.0000
35.4500 1187.0000 1.0000
35.4600 1127.0000 1.0000
35.4700 1155.0000 1.0000
35.4800 1102.0000 1.0000
35.4900 1120.0000 1.0000
35.5000 1080.0000 1.0000
35.5100 1113.0000 1.0000
35.5200 1032.0000 1.0000
35.5300 1094.0000 1.0000
35.5400 1020.0000 1.0000
35.5500 1000.0000 1.0000
35.5600 992.0000 1.0000
35.5700 962.0000 1.0000
35.5800 948.0000 1.0000
35.5900 980.0000 1.0000
35.6000 896.0000 1.0000
35.6100 912.0000 1.0000
35.6200 852.0000 1.0000
35.6300 908.0000 1.0000
35.6400 832.0000 1.0000
35.6500 843.0000 1.0000
35.6600 759.0000 1.0000
35.6700 793.0000 1.0000
35.6800 778.0000 1.0000
35.6900 742.0000 1.0000
35.7000 779.0000 1.0000
35.7100 816.0000 1.0000
35.7200 796.0000 1.0000
35.7300 733.0000 1.0000
35.7400 699.0000 1.0000
35.7500 696.0000 1.0000
35.7600 689.0000 1.0000
35.7700 657.0000 1.0000
35.7800 689.0000 1.0000
35.7900 649.0000 1.0000
35.8000 691.0000 1.0000
35.8100 681.0000 1.0000
35.8200 628.0000 1.0000
35.8300 565.0000 1.0000
35.8400 574.0000 1.0000
35.8500 617.0000 1.0000
35.8600 582.0000 1.0000
35.8700 567.0000 1.0000
35.8800 504.0000 1.0000
35.8900 542.0000 1.0000
35.9000 523.0000 1.0000
35.9100 497.0000 1.0000
35.9200 479.0000 1.0000
35.9300 520.0000 1.0000
35.9400 483.0000 1.0000
35.9500 502.0000 1.0000
35.9600 462.0000 1.0000
35.9700 512.0000 1.0000
35.9800 474.0000 1.0000
35.9900 440.0000 1.0000
36.0000 414.0000 1.0000
36.0100 426.0000 1.0000
36.0200 430.0000 1.0000
36.0300 423.0000 1.0000
36.0400 375.0000 1.0000
36.0500 411.0000 1.0000
36.0600 389.0000 1.0000
36.0700 378.0000 1.0000
36.0800 394.0000 1.0000
36.0900 380.0000 1.0000
36.1000 356.0000 1.0000
36.1100 324.0000 1.0000
36.1200 354.0000 1.0000
36.1300 372.0000 1.0000
36.1400 334.0000 1.0000
36.1500 312.0000 1.0000
36.1600 298.0000 1.0000
36.1700 314.0000 1.0000
36.1800 296.0000 1.0000
36.1900 312.0000 1.0000
36.2000 301.0000 1.0000
36.2100 267.0000 1.0000
36.2200 287.0000 1.0000
36.2300 250.0000 1.0000
36.2400 276.0000 1.0000
36.2500 234.0000 1.0000
36.2600 244.0000 1.0000
36.2700 268.0000 1.0000
36.2800 249.0000 1.0000
36.2900 260.0000 1.0000
36.3000 247.0000 1.0000
36.3100 231.0000 1.0000
36.3200 220.0000 1.0000
36.3300 254.0000 1.0000
36.3400 230.0000 1.0000
36.3500 216.0000 1.0000
36.3600 212.0000 1.0000
36.3700 251.0000 1.0000
36.3800 207.0000 1.0000
36.3900 218.0000 1.0000
36.4000 219.0000 1.0000
36.4100 197.0000 1.0000
36.4200 184.0000 1.0000
36.4300 193.0000 1.0000
36.4400 200.0000 1.0000
36.4500 183.0000 1.0000
36.4600 183.0000 1.0000
36.4700 200.0000 1.0000
36.4800 173.0000 1.0000
36.4900 196.0000 1.0000
36.5000 212.0000 1.0000
36.5100 167.0000 1.0000
36.5200 175.0000 1.0000
36.5300 192.0000 1.0000
36.5400 188.0000 1.0000
36.5500 184.0000 1.0000
36.5600 191.0000 1.0000
36.5700 182.0000 1.0000
36.5800 187.0000 1.0000
36.5900 173.0000 1.0000
36.6000 163.0000 1.0000
36.6100 182.0000 1.0000
36.6200 170.0000 1.0000
36.6300 158.0000 1.0000
36.6400 170.0000 1.0000
36.6500 172.0000 1.0000
36.6600 167.0000 1.0000
36.6700 184.0000 1.0000
36.6800 156.0000 1.0000
36.6900 160.0000 1.0000
36.7000 164.0000 1.0000
36.7100 166.0000 1.0000
36.7200 161.0000 1.0000
36.7300 179.0000 1.0000
36.7400 141.0000 1.0000
36.7500 153.0000 1.0000
36.7600 157.0000 1.0000
36.7700 184.0000 1.0000
36.7800 162.0000 1.0000
36.7900 158.0000 1.0000
36.8000 166.0000 1.0000
36.8100 153.0000 1.0000
36.8200 157.0000 1.0000
36.8300 155.0000 1.0000
36.8400 146.0000 1.0000
36.8500 144.0000 1.0000
36.8600 167.0000 1.0000
36.8700 142.0000 1.0000
36.8800 154.0000 1.0000
36.8900 157.0000 1.0000
36.9000 149.0000 1.0000
36.9100 157.0000 1.0000
36.9200 158.0000 1.0000
36.9300 157.0000 1.0000
36.9400 137.0000 1.0000
36.9500 139.0000 1.0000
36.9600 138.0000 1.0000
36.9700 150.0000 1.0000
36.9800 138.0000 1.0000
36.9900 132.0000 1.0000
37.0000 134.0000 1.0000
37.0100 145.0000 1.0000
37.0200 155.0000 1.0000
37.0300 166.0000 1.0000
37.0400 130.0000 1.0000
37.0500 140.0000 1.0000
37.0600 126.0000 1.0000
37.0700 115.0000 1.0000
37.0800 137.0000 1.0000
37.0900 126.0000 1.0000
37.1000 156.0000 1.0000
37.1100 143.0000 1.0000
37.1200 128.0000 1.0000
37.1300 125.0000 1.0000
37.1400 137.0000 1.0000
37.1500 144.0000 1.0000
37.1600 137.0000 1.0000
37.1700 130.0000 1.0000
37.1800 143.0000 1.0000
37.1900 134.0000 1.0000
37.2000 135.0000 1.0000
37.2100 165.0000 1.0000
37.2200 151.0000 1.0000
37.2300 137.0000 1.0000
37.2400 131.0000 1.0000
37.2500 147.0000 1.0000
37.2600 153.0000 1.0000
37.2700 136.0000 1.0000
37.2800 123.0000 1.0000
37.2900 154.0000 1.0000
37.3000 136.0000 1.0000
37.3100 160.0000 1.0000
37.3200 98.0000 1.0000
37.3300 114.0000 1.0000
37.3400 137.0000 1.0000
37.3500 144.0000 1.0000
37.3600 136.0000 1.0000
37.3700 145.0000 1.0000
37.3800 124.0000 1.0000
37.3900 135.0000 1.0000
37.4000 139.0000 1.0000
37.4100 141.0000 1.0000
37.4200 146.0000 1.0000
37.4300 136.0000 1.0000
37.4400 121.0000 1.0000
37.4500 131.0000 1.0000
37.4600 144.0000 1.0000
37.4700 162.0000 1.0000
37.4800 188.0000 1.0000
37.4900 232.0000 1.0000
37.5000 206.0000 1.0000
37.5100 202.0000 1.0000
37.5200 233.0000 1.0000
37.5300 267.0000 1.0000
37.5400 303.0000 1.0000
37.5500 332.0000 1.0000
37.5600 336.0000 1.0000
37.5700 313.0000 1.0000
37.5800 321.0000 1.0000
37.5900 265.0000 1.0000
37.6000 235.0000 1.0000
37.6100 238.0000 1.0000
37.6200 194.0000 1.0000
37.6300 184.0000 1.0000
37.6400 153.0000 1.0000
37.6500 133.0000 1.0000
37.6600 174.0000 1.0000
37.6700 162.0000 1.0000
37.6800 126.0000 1.0000
37.6900 111.0000 1.0000
37.7000 128.0000 1.0000
37.7100 139.0000 1.0000
37.7200 106.0000 1.0000
37.7300 147.0000 1.0000
37.7400 138.0000 1.0000
37.7500 135.0000 1.0000
37.7600 122.0000 1.0000
37.7700 122.0000 1.0000
37.7800 120.0000 1.0000
37.7900 108.0000 1.0000
37.8000 133.0000 1.0000
37.8100 143.0000 1.0000
37.8200 114.0000 1.0000
37.8300 143.0000 1.0000
37.8400 118.0000 1.0000
37.8500 144.0000 1.0000
37.8600 130.0000 1.0000
37.8700 123.0000 1.0000
37.8800 153.0000 1.0000
37.8900 146.0000 1.0000
37.9000 120.0000 1.0000
37.9100 104.0000 1.0000
37.9200 124.0000 1.0000
37.9300 122.0000 1.0000
37.9400 133.0000 1.0000
37.9500 132.0000 1.0000
37.9600 127.0000 1.0000
37.9700 137.0000 1.0000
37.9800 112.0000 1.0000
37.9900 131.0000 1.0000
38.0000 113.0000 1.0000
38.0100 108.0000 1.0000
38.0200 127.0000 1.0000
38.0300 133.0000 1.0000
38.0400 135.0000 1.0000
38.0500 128.0000 1.0000
38.0600 120.0000 1.0000
38.0700 108.0000 1.0000
38.0800 134.0000 1.0000
38.0900 143.0000 1.0000
38.1000 121.0000 1.0000
38.1100 127.0000 1.0000
38.1200 124.0000 1.0000
38.1300 105.0000 1.0000
38.1400 114.0000 1.0000
38.1500 97.0000 1.0000
38.1600 124.0000 1.0000
38.1700 132.0000 1.0000
38.1800 128.0000 1.0000
38.1900 109.0000 1.0000
38.2000 111.0000 1.0000
38.2100 119.0000 1.0000
38.2200 102.0000 1.0000
38.2300 141.0000 1.0000
38.2400 118.0000 1.0000
38.2500 129.0000 1.0000
38.2600 136.0000 1.0000
38.2700 102.0000 1.0000
38.2800 117.0000 1.0000
38.2900 111.0000 1.0000
38.3000 104.0000 1.0000
38.3100 102.0000 1.0000
38.3200 111.0000 1.0000
38.3300 116.0000 1.0000
38.3400 126.0000 1.0000
38.3500 101.0000 1.0000
38.3600 104.0000 1.0000
38.3700 133.0000 1.0000
38.3800 101.0000 1.0000
38.3900 124.0000 1.0000
38.4000 115.0000 1.0000
38.4100 109.0000 1.0000
38.4200 115.0000 1.0000
38.4300 135.0000 1.0000
38.4400 117.0000 1.0000
38.4500 114.0000 1.0000
38.4600 116.0000 1.0000
38.4700 114.0000 1.0000
38.4800 117.0000 1.0000
38.4900 121.0000 1.0000
38.5000 114.0000 1.0000
38.5100 97.0000 1.0000
38.5200 112.0000 1.0000
38.5300 118.0000 1.0000
38.5400 118.0000 1.0000
38.5500 120.0000 1.0000
38.5600 106.0000 1.0000
38.5700 121.0000 1.0000
38.5800 148.0000 1.0000
38.5900 120.0000 1.0000
38.6000 118.0000 1.0000
38.6100 107.0000 1.0000
38.6200 115.0000 1.0000
38.6300 106.0000 1.0000
38.6400 106.0000 1.0000
38.6500 111.0000 1.0000
38.6600 122.0000 1.0000
38.6700 124.0000 1.0000
38.6800 118.0000 1.0000
38.6900 125.0000 1.0000
38.7000 132.0000 1.0000
38.7100 95.0000 1.0000
38.7200 92.0000 1.0000
38.7300 112.0000 1.0000
38.7400 101.0000 1.0000
38.7500 113.0000 1.0000
38.7600 137.0000 1.0000
38.7700 111.0000 1.0000
38.7800 114.0000 1.0000
38.7900 138.0000 1.0000
38.8000 104.0000 1.0000
38.8100 103.0000 1.0000
38.8200 115.0000 1.0000
38.8300 98.0000 1.0000
38.8400 120.0000 1.0000
38.8500 112.0000 1.0000
38.8600 121.0000 1.0000
38.8700 127.0000 1.0000
38.8800 125.0000 1.0000
38.8900 96.0000 1.0000
38.9000 128.0000 1.0000
38.9100 116.0000 1.0000
38.9200 124.0000 1.0000
38.9300 121.0000 1.0000
38.9400 103.0000 1.0000
38.9500 131.0000 1.0000
38.9600 143.0000 1.0000
38.9700 98.0000 1.0000
38.9800 111.0000 1.0000
38.9900 108.0000 1.0000
39.0000 112.0000 1.0000
39.0100 116.0000 1.0000
39.0200 105.0000 1.0000
39.0300 113.0000 1.0000
39.0400 109.0000 1.0000
39.0500 121.0000 1.0000
39.0600 113.0000 1.0000
39.0700 121.0000 1.0000
39.0800 119.0000 1.0000
39.0900 116.0000 1.0000
39.1000 116.0000 1.0000
39.1100 122.0000 1.0000
39.1200 105.0000 1.0000
39.1300 119.0000 1.0000
39.1400 125.0000 1.0000
39.1500 128.0000 1.0000
39.1600 110.0000 1.0000
39.1700 120.0000 1.0000
39.1800 128.0000 1.0000
39.1900 122.0000 1.0000
39.2000 119.0000 1.0000
39.2100 122.0000 1.0000
39.2200 118.0000 1.0000
39.2300 106.0000 1.0000
39.2400 134.0000 1.0000
39.2500 133.0000 1.0000
39.2600 105.0000 1.0000
39.2700 129.0000 1.0000
39.2800 112.0000 1.0000
39.2900 130.0000 1.0000
39.3000 119.0000 1.0000
39.3100 108.0000 1.0000
39.3200 101.0000 1.0000
39.3300 129.0000 1.0000
39.3400 125.0000 1.0000
39.3500 128.0000 1.0000
39.3600 127.0000 1.0000
39.3700 111.0000 1.0000
39.3800 115.0000 1.0000
39.3900 118.0000 1.0000
39.4000 102.0000 1.0000
39.4100 109.0000 1.0000
39.4200 117.0000 1.0000
39.4300 136.0000 1.0000
39.4400 111.0000 1.0000
39.4500 130.0000 1.0000
39.4600 125.0000 1.0000
39.4700 117.0000 1.0000
39.4800 140.0000 1.0000
39.4900 135.0000 1.0000
39.5000 136.0000 1.0000
39.5100 148.0000 1.0000
39.5200 139.0000 1.0000
39.5300 147.0000 1.0000
39.5400 157.0000 1.0000
39.5500 123.0000 1.0000
39.5600 144.0000 1.0000
39.5700 143.0000 1.0000
39.5800 146.0000 1.0000
39.5900 147.0000 1.0000
39.6000 135.0000 1.0000
39.6100 149.0000 1.0000
39.6200 161.0000 1.0000
39.6300 143.0000 1.0000
39.6400 134.0000 1.0000
39.6500 141.0000 1.0000
39.6600 169.0000 1.0000
39.6700 132.0000 1.0000
39.6800 158.0000 1.0000
39.6900 179.0000 1.0000
39.7000 169.0000 1.0000
39.7100 134.0000 1.0000
39.7200 160.0000 1.0000
39.7300 163.0000 1.0000
39.7400 166.0000 1.0000
39.7500 170.0000 1.0000
39.7600 166.0000 1.0000
39.7700 168.0000 1.0000
39.7800 189.0000 1.0000
39.7900 181.0000 1.0000
39.8000 242.0000 1.0000
39.8100 184.0000 1.0000
39.8200 230.0000 1.0000
39.8300 247.0000 1.0000
39.8400 284.0000 1.0000
39.8500 323.0000 1.0000
39.8600 381.0000 1.0000
39.8700 354.0000 1.0000
39.8800 441.0000 1.0000
39.8900 435.0000 1.0000
39.9000 444.0000 1.0000
39.9100 446.0000 1.0000
39.9200 365.0000 1.0000
39.9300 391.0000 1.0000
39.9400 330.0000 1.0000
39.9500 307.0000 1.0000
39.9600 261.0000 1.0000
39.9700 224.0000 1.0000
39.9800 215.0000 1.0000
39.9900 199.0000 1.0000
40.0000 189.0000 1.0000
40.0100 161.0000 1.0000
40.0200 173.0000 1.0000
40.0300 161.0000 1.0000
40.0400 145.0000 1.0000
40.0500 174.0000 1.0000
40.0600 165.0000 1.0000
40.0700 186.0000 1.0000
40.0800 189.0000 1.0000
40.0900 147.0000 1.0000
40.1000 137.0000 1.0000
40.1100 169.0000 1.0000
40.1200 128.0000 1.0000
40.1300 165.0000 1.0000
40.1400 164.0000 1.0000
40.1500 137.0000 1.0000
40.1600 161.0000 1.0000
40.1700 179.0000 1.0000
40.1800 185.0000 1.0000
40.1900 199.0000 1.0000
40.2000 176.0000 1.0000
40.2100 217.0000 1.0000
40.2200 209.0000 1.0000
40.2300 197.0000 1.0000
40.2400 214.0000 1.0000
40.2500 194.0000 1.0000
40.2600 171.0000 1.0000
40.2700 166.0000 1.0000
40.2800 177.0000 1.0000
40.2900 192.0000 1.0000
40.3000 154.0000 1.0000
40.3100 153.0000 1.0000
40.3200 171.0000 1.0000
40.3300 162.0000 1.0000
40.3400 170.0000 1.0000
40.3500 167.0000 1.0000
40.3600 151.0000 1.0000
40.3700 150.0000 1.0000
40.3800 164.0000 1.0000
40.3900 168.0000 1.0000
40.4000 148.0000 1.0000
40.4100 138.0000 1.0000
40.4200 165.0000 1.0000
40.4300 165.0000 1.0000
40.4400 156.0000 1.0000
40.4500 165.0000 1.0000
40.4600 162.0000 1.0000
40.4700 165.0000 1.0000
40.4800 166.0000 1.0000
40.4900 155.0000 1.0000
40.5000 153.0000 1.0000
40.5100 189.0000 1.0000
40.5200 158.0000 1.0000
40.5300 153.0000 1.0000
40.5400 174.0000 1.0000
40.5500 179.0000 1.0000
40.5600 165.0000 1.0000
40.5700 148.0000 1.0000
40.5800 185.0000 1.0000
40.5900 144.0000 1.0000
40.6000 188.0000 1.0000
40.6100 174.0000 1.0000
40.6200 166.0000 1.0000
40.6300 170.0000 1.0000
40.6400 168.0000 1.0000
40.6500 194.0000 1.0000
40.6600 177.0000 1.0000
40.6700 182.0000 1.0000
40.6800 180.0000 1.0000
40.6900 177.0000 1.0000
40.7000 176.0000 1.0000
40.7100 168.0000 1.0000
40.7200 179.0000 1.0000
40.7300 166.0000 1.0000
40.7400 191.0000 1.0000
40.7500 185.0000 1.0000
40.7600 171.0000 1.0000
40.7700 169.0000 1.0000
40.7800 165.0000 1.0000
40.7900 175.0000 1.0000
40.8000 179.0000 1.0000
40.8100 197.0000 1.0000
40.8200 171.0000 1.0000
40.8300 191.0000 1.0000
40.8400 179.0000 1.0000
40.8500 167.0000 1.0000
40.8600 176.0000 1.0000
40.8700 183.0000 1.0000
40.8800 180.0000 1.0000
40.8900 205.0000 1.0000
40.9000 171.0000 1.0000
40.9100 179.0000 1.0000
40.9200 172.0000 1.0000
40.9300 170.0000 1.0000
40.9400 177.0000 1.0000
40.9500 201.0000 1.0000
40.9600 175.0000 1.0000
40.9700 182.0000 1.0000
40.9800 178.0000 1.0000
40.9900 179.0000 1.0000
41.0000 179.0000 1.0000
41.0100 198.0000 1.0000
41.0200 165.0000 1.0000
41.0300 180.0000 1.0000
41.0400 194.0000 1.0000
41.0500 201.0000 1.0000
41.0600 201.0000 1.0000
41.0700 200.0000 1.0000
41.0800 186.0000 1.0000
41.0900 199.0000 1.0000
41.1000 201.0000 1.0000
41.1100 197.0000 1.0000
41.1200 214.0000 1.0000
41.1300 207.0000 1.0000
41.1400 212.0000 1.0000
41.1500 231.0000 1.0000
41.1600 226.0000 1.0000
41.1700 203.0000 1.0000
41.1800 218.0000 1.0000
41.1900 204.0000 1.0000
41.2000 212.0000 1.0000
41.2100 214.0000 1.0000
41.2200 224.0000 1.0000
41.2300 239.0000 1.0000
41.2400 218.0000 1.0000
41.2500 214.0000 1.0000
41.2600 232.0000 1.0000
41.2700 248.0000 1.0000
41.2800 246.0000 1.0000
41.2900 230.0000 1.0000
41.3000 203.0000 1.0000
41.3100 209.0000 1.0000
41.3200 203.0000 1.0000
41.3300 240.0000 1.0000
41.3400 239.0000 1.0000
41.3500 253.0000 1.0000
41.3600 230.0000 1.0000
41.3700 274.0000 1.0000
41.3800 236.0000 1.0000
41.3900 262.0000 1.0000
41.4000 277.0000 1.0000
41.4100 278.0000 1.0000
41.4200 293.0000 1.0000
41.4300 267.0000 1.0000
41.4400 312.0000 1.0000
41.4500 284.0000 1.0000
41.4600 348.0000 1.0000
41.4700 378.0000 1.0000
41.4800 386.0000 1.0000
41.4900 419.0000 1.0000
41.5000 460.0000 1.0000
41.5100 533.0000 1.0000
41.5200 598.0000 1.0000
41.5300 652.0000 1.0000
41.5400 708.0000 1.0000
41.5500 677.0000 1.0000
41.5600 765.0000 1.0000
41.5700 855.0000 1.0000
41.5800 860.0000 1.0000
41.5900 887.0000 1.0000
41.6000 928.0000 1.0000
41.6100 967.0000 1.0000
41.6200 1059.0000 1.0000
41.6300 1215.0000 1.0000
41.6400 1493.0000 1.0000
41.6500 1965.0000 1.0000
41.6600 2572.0000 1.0000
41.6700 3665.0000 1.0000
41.6800 5273.0000 1.0000
41.6900 8343.0000 1.0000
41.7000 13571.0000 1.0000
41.7100 442.0000 46.6956
41.7200 627.0000 46.6956
41.7300 774.0000 46.6956
41.7400 933.0000 46.6956
41.7500 907.0000 46.6956
41.7600 888.9999 46.6956
41.7700 773.0000 46.6956
41.7800 626.0000 46.6956
41.7900 463.0000 46.6956
41.8000 299.0000 46.6956
41.8100 313.0000 46.6956
41.8200 282.0000 46.6956
41.8300 364.0000 46.6956
41.8400 407.0000 46.6956
41.8500 431.0000 46.6956
41.8600 483.0000 46.6956
41.8700 457.0000 46.6956
41.8800 363.0000 46.6956
41.8900 301.0000 46.6956
41.9000 9512.0000 1.0000
41.9100 6341.0000 1.0000
41.9200 4275.0000 1.0000
41.9300 2939.0000 1.0000
41.9400 1919.0000 1.0000
41.9500 1506.0000 1.0000
41.9600 1126.0000 1.0000
41.9700 987.0000 1.0000
41.9800 798.0000 1.0000
41.9900 679.0000 1.0000
42.0000 569.0000 1.0000
42.0100 571.0000 1.0000
42.0200 491.0000 1.0000
42.0300 488.0000 1.0000
42.0400 419.0000 1.0000
42.0500 406.0000 1.0000
42.0600 415.0000 1.0000
42.0700 368.0000 1.0000
42.0800 356.0000 1.0000
42.0900 333.0000 1.0000
42.1000 354.0000 1.0000
42.1100 298.0000 1.0000
42.1200 341.0000 1.0000
42.1300 327.0000 1.0000
42.1400 296.0000 1.0000
42.1500 300.0000 1.0000
42.1600 315.0000 1.0000
42.1700 290.0000 1.0000
42.1800 296.0000 1.0000
42.1900 277.0000 1.0000
42.2000 268.0000 1.0000
42.2100 262.0000 1.0000
42.2200 273.0000 1.0000
42.2300 219.0000 1.0000
42.2400 233.0000 1.0000
42.2500 218.0000 1.0000
42.2600 243.0000 1.0000
42.2700 227.0000 1.0000
42.2800 239.0000 1.0000
42.2900 210.0000 1.0000
42.3000 228.0000 1.0000
42.3100 204.0000 1.0000
42.3200 196.0000 1.0000
42.3300 191.0000 1.0000
42.3400 197.0000 1.0000
42.3500 212.0000 1.0000
42.3600 184.0000 1.0000
42.3700 208.0000 1.0000
42.3800 197.0000 1.0000
42.3900 184.0000 1.0000
42.4000 189.0000 1.0000
42.4100 168.0000 1.0000
42.4200 204.0000 1.0000
42.4300 182.0000 1.0000
42.4400 161.0000 1.0000
42.4500 160.0000 1.0000
42.4600 184.0000 1.0000
42.4700 189.0000 1.0000
42.4800 161.0000 1.0000
42.4900 159.0000 1.0000
42.5000 170.0000 1.0000
42.5100 174.0000 1.0000
42.5200 175.0000 1.0000
42.5300 171.0000 1.0000
42.5400 193.0000 1.0000
42.5500 146.0000 1.0000
42.5600 163.0000 1.0000
42.5700 171.0000 1.0000
42.5800 147.0000 1.0000
42.5900 144.0000 1.0000
42.6000 161.0000 1.0000
42.6100 175.0000 1.0000
42.6200 138.0000 1.0000
42.6300 149.0000 1.0000
42.6400 157.0000 1.0000
42.6500 157.0000 1.0000
42.6600 140.0000 1.0000
42.6700 164.0000 1.0000
42.6800 150.0000 1.0000
42.6900 158.0000 1.0000
42.7000 142.0000 1.0000
42.7100 164.0000 1.0000
42.7200 147.0000 1.0000
42.7300 152.0000 1.0000
42.7400 137.0000 1.0000
42.7500 139.0000 1.0000
42.7600 148.0000 1.0000
42.7700 147.0000 1.0000
42.7800 149.0000 1.0000
42.7900 119.0000 1.0000
42.8000 157.0000 1.0000
42.8100 149.0000 1.0000
42.8200 131.0000 1.0000
42.8300 137.0000 1.0000
42.8400 149.0000 1.0000
42.8500 131.0000 1.0000
42.8600 135.0000 1.0000
42.8700 140.0000 1.0000
42.8800 141.0000 1.0000
42.8900 163.0000 1.0000
42.9000 145.0000 1.0000
42.9100 150.0000 1.0000
42.9200 160.0000 1.0000
42.9300 129.0000 1.0000
42.9400 148.0000 1.0000
42.9500 141.0000 1.0000
42.9600 131.0000 1.0000
42.9700 153.0000 1.0000
42.9800 128.0000 1.0000
42.9900 142.0000 1.0000
43.0000 161.0000 1.0000
43.0100 148.0000 1.0000
43.0200 141.0000 1.0000
43.0300 131.0000 1.0000
43.0400 136.0000 1.0000
43.0500 155.0000 1.0000
43.0600 146.0000 1.0000
43.0700 136.0000 1.0000
43.0800 160.0000 1.0000
43.0900 159.0000 1.0000
43.1000 147.0000 1.0000
43.1100 143.0000 1.0000
43.1200 123.0000 1.0000
43.1300 141.0000 1.0000
43.1400 160.0000 1.0000
43.1500 177.0000 1.0000
43.1600 152.0000 1.0000
43.1700 143.0000 1.0000
43.1800 145.0000 1.0000
43.1900 155.0000 1.0000
43.2000 140.0000 1.0000
43.2100 128.0000 1.0000
43.2200 132.0000 1.0000
43.2300 128.0000 1.0000
43.2400 150.0000 1.0000
43.2500 147.0000 1.0000
43.2600 140.0000 1.0000
43.2700 160.0000 1.0000
43.2800 154.0000 1.0000
43.2900 144.0000 1.0000
43.3000 153.0000 1.0000
43.3100 129.0000 1.0000
43.3200 145.0000 1.0000
43.3300 146.0000 1.0000
43.3400 142.0000 1.0000
43.3500 140.0000 1.0000
43.3600 148.0000 1.0000
43.3700 118.0000 1.0000
43.3800 162.0000 1.0000
43.3900 127.0000 1.0000
43.4000 138.0000 1.0000
43.4100 146.0000 1.0000
43.4200 135.0000 1.0000
43.4300 132.0000 1.0000
43.4400 163.0000 1.0000
43.4500 136.0000 1.0000
43.4600 152.0000 1.0000
43.4700 143.0000 1.0000
43.4800 153.0000 1.0000
43.4900 148.0000 1.0000
43.5000 155.0000 1.0000
43.5100 153.0000 1.0000
43.5200 152.0000 1.0000
43.5300 159.0000 1.0000
43.5400 170.0000 1.0000
43.5500 168.0000 1.0000
43.5600 147.0000 1.0000
43.5700 149.0000 1.0000
43.5800 162.0000 1.0000
43.5900 173.0000 1.0000
43.6000 161.0000 1.0000
43.6100 171.0000 1.0000
43.6200 164.0000 1.0000
43.6300 170.0000 1.0000
43.6400 185.0000 1.0000
43.6500 171.0000 1.0000
43.6600 174.0000 1.0000
43.6700 203.0000 1.0000
43.6800 207.0000 1.0000
43.6900 184.0000 1.0000
43.7000 209.0000 1.0000
43.7100 227.0000 1.0000
43.7200 218.0000 1.0000
43.7300 214.0000 1.0000
43.7400 257.0000 1.0000
43.7500 227.0000 1.0000
43.7600 269.0000 1.0000
43.7700 264.0000 1.0000
43.7800 282.0000 1.0000
43.7900 340.0000 1.0000
43.8000 312.0000 1.0000
43.8100 340.0000 1.0000
43.8200 379.0000 1.0000
43.8300 490.0000 1.0000
43.8400 513.0000 1.0000
43.8500 532.0000 1.0000
43.8600 647.0000 1.0000
43.8700 819.0000 1.0000
43.8800 927.0000 1.0000
43.8900 1142.0000 1.0000
43.9000 1339.0000 1.0000
43.9100 1561.0000 1.0000
43.9200 1837.0000 1.0000
43.9300 2161.0000 1.0000
43.9400 2240.0000 1.0000
43.9500 2571.0000 1.0000
43.9600 2707.0000 1.0000
43.9700 2982.0000 1.0000
43.9800 3208.0000 1.0000
43.9900 3368.0000 1.0000
44.0000 3581.0000 1.0000
44.0100 3722.0000 1.0000
44.0200 3999.0000 1.0000
44.0300 4208.0000 1.0000
44.0400 4520.0000 1.0000
44.0500 4737.0000 1.0000
44.0600 4829.0000 1.0000
44.0700 5202.0000 1.0000
44.0800 5549.0000 1.0000
44.0900 5671.0000 1.0000
44.1000 5968.0000 1.0000
44.1100 6151.0000 1.0000
44.1200 6111.0000 1.0000
44.1300 6091.0000 1.0000
44.1400 5920.0000 1.0000
44.1500 5564.0000 1.0000
44.1600 5496.0000 1.0000
44.1700 5046.0000 1.0000
44.1800 4790.0000 1.0000
44.1900 4409.0000 1.0000
44.2000 4097.0000 1.0000
44.2100 3830.0000 1.0000
44.2200 3390.0000 1.0000
44.2300 3254.0000 1.0000
44.2400 3009.0000 1.0000
44.2500 2589.0000 1.0000
44.2600 2554.0000 1.0000
44.2700 2236.0000 1.0000
44.2800 2006.0000 1.0000
44.2900 1778.0000 1.0000
44.3000 1606.0000 1.0000
44.3100 1376.0000 1.0000
44.3200 1189.0000 1.0000
44.3300 1040.0000 1.0000
44.3400 815.0000 1.0000
44.3500 748.0000 1.0000
44.3600 539.0000 1.0000
44.3700 459.0000 1.0000
44.3800 401.0000 1.0000
44.3900 362.0000 1.0000
44.4000 332.0000 1.0000
44.4100 324.0000 1.0000
44.4200 340.0000 1.0000
44.4300 310.0000 1.0000
44.4400 257.0000 1.0000
44.4500 294.0000 1.0000
44.4600 252.0000 1.0000
44.4700 274.0000 1.0000
44.4800 235.0000 1.0000
44.4900 256.0000 1.0000
44.5000 216.0000 1.0000
44.5100 187.0000 1.0000
44.5200 236.0000 1.0000
44.5300 224.0000 1.0000
44.5400 184.0000 1.0000
44.5500 205.0000 1.0000
44.5600 184.0000 1.0000
44.5700 184.0000 1.0000
44.5800 171.0000 1.0000
44.5900 170.0000 1.0000
44.6000 146.0000 1.0000
44.6100 168.0000 1.0000
44.6200 165.0000 1.0000
44.6300 151.0000 1.0000
44.6400 143.0000 1.0000
44.6500 150.0000 1.0000
44.6600 133.0000 1.0000
44.6700 140.0000 1.0000
44.6800 149.0000 1.0000
44.6900 132.0000 1.0000
44.7000 135.0000 1.0000
44.7100 134.0000 1.0000
44.7200 119.0000 1.0000
44.7300 131.0000 1.0000
44.7400 139.0000 1.0000
44.7500 126.0000 1.0000
44.7600 135.0000 1.0000
44.7700 117.0000 1.0000
44.7800 118.0000 1.0000
44.7900 92.0000 1.0000
44.8000 136.0000 1.0000
44.8100 122.0000 1.0000
44.8200 143.0000 1.0000
44.8300 117.0000 1.0000
44.8400 119.0000 1.0000
44.8500 129.0000 1.0000
44.8600 127.0000 1.0000
44.8700 110.0000 1.0000
44.8800 110.0000 1.0000
44.8900 125.0000 1.0000
44.9000 120.0000 1.0000
44.9100 121.0000 1.0000
44.9200 111.0000 1.0000
44.9300 104.0000 1.0000
44.9400 122.0000 1.0000
44.9500 133.0000 1.0000
44.9600 120.0000 1.0000
44.9700 102.0000 1.0000
44.9800 116.0000 1.0000
44.9900 125.0000 1.0000
45.0000 117.0000 1.0000
45.0100 118.0000 1.0000
45.0200 117.0000 1.0000
45.0300 125.0000 1.0000
45.0400 125.0000 1.0000
45.0500 101.0000 1.0000
45.0600 98.0000 1.0000
45.0700 111.0000 1.0000
45.0800 110.0000 1.0000
45.0900 122.0000 1.0000
45.1000 124.0000 1.0000
45.1100 111.0000 1.0000
45.1200 111.0000 1.0000
45.1300 131.0000 1.0000
45.1400 108.0000 1.0000
45.1500 122.0000 1.0000
45.1600 125.0000 1.0000
45.1700 111.0000 1.0000
45.1800 119.0000 1.0000
45.1900 112.0000 1.0000
45.2000 96.0000 1.0000
45.2100 125.0000 1.0000
45.2200 115.0000 1.0000
45.2300 119.0000 1.0000
45.2400 116.0000 1.0000
45.2500 108.0000 1.0000
45.2600 106.0000 1.0000
45.2700 110.0000 1.0000
45.2800 98.0000 1.0000
45.2900 107.0000 1.0000
45.3000 126.0000 1.0000
45.3100 127.0000 1.0000
45.3200 111.0000 1.0000
45.3300 110.0000 1.0000
45.3400 109.0000 1.0000
45.3500 110.0000 1.0000
45.3600 115.0000 1.0000
45.3700 105.0000 1.0000
45.3800 107.0000 1.0000
45.3900 110.0000 1.0000
45.4000 115.0000 1.0000
45.4100 117.0000 1.0000
45.4200 101.0000 1.0000
45.4300 140.0000 1.0000
45.4400 110.0000 1.0000
45.4500 124.0000 1.0000
45.4600 104.0000 1.0000
45.4700 112.0000 1.0000
45.4800 115.0000 1.0000
45.4900 106.0000 1.0000
45.5000 116.0000 1.0000
45.5100 108.0000 1.0000
45.5200 110.0000 1.0000
45.5300 107.0000 1.0000
45.5400 120.0000 1.0000
45.5500 94.0000 1.0000
45.5600 109.0000 1.0000
45.5700 127.0000 1.0000
45.5800 101.0000 1.0000
45.5900 110.0000 1.0000
45.6000 114.0000 1.0000
45.6100 93.0000 1.0000
45.6200 118.0000 1.0000
45.6300 91.0000 1.0000
45.6400 122.0000 1.0000
45.6500 92.0000 1.0000
45.6600 107.0000 1.0000
45.6700 112.0000 1.0000
45.6800 115.0000 1.0000
45.6900 123.0000 1.0000
45.7000 107.0000 1.0000
45.7100 113.0000 1.0000
45.7200 103.0000 1.0000
45.7300 106.0000 1.0000
45.7400 95.0000 1.0000
45.7500 114.0000 1.0000
45.7600 103.0000 1.0000
45.7700 112.0000 1.0000
45.7800 98.0000 1.0000
45.7900 103.0000 1.0000
45.8000 103.0000 1.0000
45.8100 111.0000 1.0000
45.8200 124.0000 1.0000
45.8300 111.0000 1.0000
45.8400 112.0000 1.0000
45.8500 117.0000 1.0000
45.8600 98.0000 1.0000
45.8700 99.0000 1.0000
45.8800 106.0000 1.0000
45.8900 84.0000 1.0000
45.9000 87.0000 1.0000
45.9100 103.0000 1.0000
45.9200 103.0000 1.0000
45.9300 107.0000 1.0000
45.9400 122.0000 1.0000
45.9500 107.0000 1.0000
45.9600 102.0000 1.0000
45.9700 103.0000 1.0000
45.9800 110.0000 1.0000
45.9900 92.0000 1.0000
46.0000 113.0000 1.0000
46.0100 101.0000 1.0000
46.0200 107.0000 1.0000
46.0300 130.0000 1.0000
46.0400 103.0000 1.0000
46.0500 100.0000 1.0000
46.0600 117.0000 1.0000
46.0700 91.0000 1.0000
46.0800 100.0000 1.0000
46.0900 113.0000 1.0000
46.1000 116.0000 1.0000
46.1100 100.0000 1.0000
46.1200 107.0000 1.0000
46.1300 107.0000 1.0000
46.1400 100.0000 1.0000
46.1500 85.0000 1.0000
46.1600 105.0000 1.0000
46.1700 122.0000 1.0000
46.1800 100.0000 1.0000
46.1900 100.0000 1.0000
46.2000 101.0000 1.0000
46.2100 99.0000 1.0000
46.2200 122.0000 1.0000
46.2300 110.0000 1.0000
46.2400 116.0000 1.0000
46.2500 86.0000 1.0000
46.2600 128.0000 1.0000
46.2700 93.0000 1.0000
46.2800 104.0000 1.0000
46.2900 121.0000 1.0000
46.3000 112.0000 1.0000
46.3100 97.0000 1.0000
46.3200 102.0000 1.0000
46.3300 99.0000 1.0000
46.3400 93.0000 1.0000
46.3500 95.0000 1.0000
46.3600 109.0000 1.0000
46.3700 112.0000 1.0000
46.3800 91.0000 1.0000
46.3900 96.0000 1.0000
46.4000 120.0000 1.0000
46.4100 107.0000 1.0000
46.4200 104.0000 1.0000
46.4300 109.0000 1.0000
46.4400 97.0000 1.0000
46.4500 116.0000 1.0000
46.4600 123.0000 1.0000
46.4700 90.0000 1.0000
46.4800 97.0000 1.0000
46.4900 98.0000 1.0000
46.5000 95.0000 1.0000
46.5100 101.0000 1.0000
46.5200 123.0000 1.0000
46.5300 89.0000 1.0000
46.5400 111.0000 1.0000
46.5500 119.0000 1.0000
46.5600 99.0000 1.0000
46.5700 96.0000 1.0000
46.5800 111.0000 1.0000
46.5900 112.0000 1.0000
46.6000 105.0000 1.0000
46.6100 102.0000 1.0000
46.6200 110.0000 1.0000
46.6300 101.0000 1.0000
46.6400 107.0000 1.0000
46.6500 109.0000 1.0000
46.6600 107.0000 1.0000
46.6700 114.0000 1.0000
46.6800 116.0000 1.0000
46.6900 110.0000 1.0000
46.7000 123.0000 1.0000
46.7100 93.0000 1.0000
46.7200 107.0000 1.0000
46.7300 102.0000 1.0000
46.7400 89.0000 1.0000
46.7500 108.0000 1.0000
46.7600 88.0000 1.0000
46.7700 106.0000 1.0000
46.7800 109.0000 1.0000
46.7900 96.0000 1.0000
46.8000 98.0000 1.0000
46.8100 118.0000 1.0000
46.8200 103.0000 1.0000
46.8300 104.0000 1.0000
46.8400 100.0000 1.0000
46.8500 103.0000 1.0000
46.8600 113.0000 1.0000
46.8700 104.0000 1.0000
46.8800 110.0000 1.0000
46.8900 111.0000 1.0000
46.9000 93.0000 1.0000
46.9100 95.0000 1.0000
46.9200 103.0000 1.0000
46.9300 111.0000 1.0000
46.9400 104.0000 1.0000
46.9500 96.0000 1.0000
46.9600 109.0000 1.0000
46.9700 117.0000 1.0000
46.9800 112.0000 1.0000
46.9900 106.0000 1.0000
47.0000 100.0000 1.0000
47.0100 117.0000 1.0000
47.0200 105.0000 1.0000
47.0300 103.0000 1.0000
47.0400 115.0000 1.0000
47.0500 100.0000 1.0000
47.0600 116.0000 1.0000
47.0700 107.0000 1.0000
47.0800 125.0000 1.0000
47.0900 118.0000 1.0000
47.1000 97.0000 1.0000
47.1100 115.0000 1.0000
47.1200 126.0000 1.0000
47.1300 89.0000 1.0000
47.1400 108.0000 1.0000
47.1500 103.0000 1.0000
47.1600 97.0000 1.0000
47.1700 89.0000 1.0000
47.1800 99.0000 1.0000
47.1900 98.0000 1.0000
47.2000 108.0000 1.0000
47.2100 107.0000 1.0000
47.2200 116.0000 1.0000
47.2300 112.0000 1.0000
47.2400 121.0000 1.0000
47.2500 100.0000 1.0000
47.2600 110.0000 1.0000
47.2700 112.0000 1.0000
47.2800 106.0000 1.0000
47.2900 106.0000 1.0000
47.3000 98.0000 1.0000
47.3100 103.0000 1.0000
47.3200 82.0000 1.0000
47.3300 110.0000 1.0000
47.3400 114.0000 1.0000
47.3500 108.0000 1.0000
47.3600 104.0000 1.0000
47.3700 86.0000 1.0000
47.3800 117.0000 1.0000
47.3900 126.0000 1.0000
47.4000 89.0000 1.0000
47.4100 112.0000 1.0000
47.4200 110.0000 1.0000
47.4300 96.0000 1.0000
47.4400 106.0000 1.0000
47.4500 104.0000 1.0000
47.4600 105.0000 1.0000
47.4700 115.0000 1.0000
47.4800 113.0000 1.0000
47.4900 114.0000 1.0000
47.5000 120.0000 1.0000
47.5100 110.0000 1.0000
47.5200 96.0000 1.0000
47.5300 101.0000 1.0000
47.5400 95.0000 1.0000
47.5500 90.0000 1.0000
47.5600 110.0000 1.0000
47.5700 92.0000 1.0000
47.5800 109.0000 1.0000
47.5900 105.0000 1.0000
47.6000 88.0000 1.0000
47.6100 108.0000 1.0000
47.6200 94.0000 1.0000
47.6300 115.0000 1.0000
47.6400 110.0000 1.0000
47.6500 101.0000 1.0000
47.6600 97.0000 1.0000
47.6700 99.0000 1.0000
47.6800 93.0000 1.0000
47.6900 112.0000 1.0000
47.7000 128.0000 1.0000
47.7100 98.0000 1.0000
47.7200 112.0000 1.0000
47.7300 101.0000 1.0000
47.7400 97.0000 1.0000
47.7500 97.0000 1.0000
47.7600 103.0000 1.0000
47.7700 107.0000 1.0000
47.7800 109.0000 1.0000
47.7900 95.0000 1.0000
47.8000 123.0000 1.0000
47.8100 100.0000 1.0000
47.8200 100.0000 1.0000
47.8300 112.0000 1.0000
47.8400 101.0000 1.0000
47.8500 106.0000 1.0000
47.8600 106.0000 1.0000
47.8700 112.0000 1.0000
47.8800 95.0000 1.0000
47.8900 103.0000 1.0000
47.9000 107.0000 1.0000
47.9100 106.0000 1.0000
47.9200 102.0000 1.0000
47.9300 93.0000 1.0000
47.9400 124.0000 1.0000
47.9500 105.0000 1.0000
47.9600 102.0000 1.0000
47.9700 98.0000 1.0000
47.9800 107.0000 1.0000
47.9900 107.0000 1.0000
48.0000 101.0000 1.0000
48.0100 93.0000 1.0000
48.0200 107.0000 1.0000
48.0300 116.0000 1.0000
48.0400 100.0000 1.0000
48.0500 115.0000 1.0000
48.0600 99.0000 1.0000
48.0700 108.0000 1.0000
48.0800 91.0000 1.0000
48.0900 90.0000 1.0000
48.1000 109.0000 1.0000
48.1100 122.0000 1.0000
48.1200 100.0000 1.0000
48.1300 101.0000 1.0000
48.1400 108.0000 1.0000
48.1500 111.0000 1.0000
48.1600 89.0000 1.0000
48.1700 99.0000 1.0000
48.1800 110.0000 1.0000
48.1900 93.0000 1.0000
48.2000 114.0000 1.0000
48.2100 96.0000 1.0000
48.2200 122.0000 1.0000
48.2300 91.0000 1.0000
48.2400 113.0000 1.0000
48.2500 111.0000 1.0000
48.2600 117.0000 1.0000
48.2700 91.0000 1.0000
48.2800 79.0000 1.0000
48.2900 117.0000 1.0000
48.3000 90.0000 1.0000
48.3100 87.0000 1.0000
48.3200 115.0000 1.0000
48.3300 101.0000 1.0000
48.3400 96.0000 1.0000
48.3500 117.0000 1.0000
48.3600 96.0000 1.0000
48.3700 102.0000 1.0000
48.3800 95.0000 1.0000
48.3900 100.0000 1.0000
48.4000 115.0000 1.0000
48.4100 108.0000 1.0000
48.4200 97.0000 1.0000
48.4300 97.0000 1.0000
48.4400 106.0000 1.0000
48.4500 94.0000 1.0000
48.4600 108.0000 1.0000
48.4700 135.0000 1.0000
48.4800 100.0000 1.0000
48.4900 120.0000 1.0000
48.5000 83.0000 1.0000
48.5100 105.0000 1.0000
48.5200 116.0000 1.0000
48.5300 95.0000 1.0000
48.5400 105.0000 1.0000
48.5500 116.0000 1.0000
48.5600 117.0000 1.0000
48.5700 127.0000 1.0000
48.5800 97.0000 1.0000
48.5900 96.0000 1.0000
48.6000 106.0000 1.0000
48.6100 110.0000 1.0000
48.6200 101.0000 1.0000
48.6300 105.0000 1.0000
48.6400 95.0000 1.0000
48.6500 100.0000 1.0000
48.6600 118.0000 1.0000
48.6700 111.0000 1.0000
48.6800 103.0000 1.0000
48.6900 102.0000 1.0000
48.7000 118.0000 1.0000
48.7100 106.0000 1.0000
48.7200 114.0000 1.0000
48.7300 95.0000 1.0000
48.7400 111.0000 1.0000
48.7500 101.0000 1.0000
48.7600 92.0000 1.0000
48.7700 78.0000 1.0000
48.7800 125.0000 1.0000
48.7900 109.0000 1.0000
48.8000 117.0000 1.0000
48.8100 107.0000 1.0000
48.8200 118.0000 1.0000
48.8300 102.0000 1.0000
48.8400 88.0000 1.0000
48.8500 111.0000 1.0000
48.8600 99.0000 1.0000
48.8700 108.0000 1.0000
48.8800 102.0000 1.0000
48.8900 122.0000 1.0000
48.9000 88.0000 1.0000
48.9100 120.0000 1.0000
48.9200 115.0000 1.0000
48.9300 103.0000 1.0000
48.9400 112.0000 1.0000
48.9500 93.0000 1.0000
48.9600 85.0000 1.0000
48.9700 114.0000 1.0000
48.9800 117.0000 1.0000
48.9900 87.0000 1.0000
49.0000 90.0000 1.0000
49.0100 90.0000 1.0000
49.0200 103.0000 1.0000
49.0300 105.0000 1.0000
49.0400 112.0000 1.0000
49.0500 104.0000 1.0000
49.0600 105.0000 1.0000
49.0700 89.0000 1.0000
49.0800 102.0000 1.0000
49.0900 112.0000 1.0000
49.1000 104.0000 1.0000
49.1100 113.0000 1.0000
49.1200 124.0000 1.0000
49.1300 96.0000 1.0000
49.1400 102.0000 1.0000
49.1500 84.0000 1.0000
49.1600 107.0000 1.0000
49.1700 116.0000 1.0000
49.1800 105.0000 1.0000
49.1900 96.0000 1.0000
49.2000 104.0000 1.0000
49.2100 91.0000 1.0000
49.2200 102.0000 1.0000
49.2300 117.0000 1.0000
49.2400 109.0000 1.0000
49.2500 101.0000 1.0000
49.2600 109.0000 1.0000
49.2700 118.0000 1.0000
49.2800 104.0000 1.0000
49.2900 117.0000 1.0000
49.3000 98.0000 1.0000
49.3100 114.0000 1.0000
49.3200 105.0000 1.0000
49.3300 79.0000 1.0000
49.3400 100.0000 1.0000
49.3500 120.0000 1.0000
49.3600 97.0000 1.0000
49.3700 92.0000 1.0000
49.3800 107.0000 1.0000
49.3900 109.0000 1.0000
49.4000 88.0000 1.0000
49.4100 104.0000 1.0000
49.4200 92.0000 1.0000
49.4300 88.0000 1.0000
49.4400 116.0000 1.0000
49.4500 92.0000 1.0000
49.4600 105.0000 1.0000
49.4700 88.0000 1.0000
49.4800 133.0000 1.0000
49.4900 124.0000 1.0000
49.5000 120.0000 1.0000
49.5100 105.0000 1.0000
49.5200 117.0000 1.0000
49.5300 92.0000 1.0000
49.5400 100.0000 1.0000
49.5500 103.0000 1.0000
49.5600 120.0000 1.0000
49.5700 110.0000 1.0000
49.5800 109.0000 1.0000
49.5900 116.0000 1.0000
49.6000 109.0000 1.0000
49.6100 108.0000 1.0000
49.6200 119.0000 1.0000
49.6300 117.0000 1.0000
49.6400 87.0000 1.0000
49.6500 108.0000 1.0000
49.6600 100.0000 1.0000
49.6700 109.0000 1.0000
49.6800 94.0000 1.0000
49.6900 107.0000 1.0000
49.7000 116.0000 1.0000
49.7100 106.0000 1.0000
49.7200 104.0000 1.0000
49.7300 98.0000 1.0000
49.7400 103.0000 1.0000
49.7500 112.0000 1.0000
49.7600 112.0000 1.0000
49.7700 96.0000 1.0000
49.7800 91.0000 1.0000
49.7900 86.0000 1.0000
49.8000 90.0000 1.0000
49.8100 98.0000 1.0000
49.8200 89.0000 1.0000
49.8300 109.0000 1.0000
49.8400 112.0000 1.0000
49.8500 97.0000 1.0000
49.8600 94.0000 1.0000
49.8700 109.0000 1.0000
49.8800 102.0000 1.0000
49.8900 112.0000 1.0000
49.9000 112.0000 1.0000
49.9100 122.0000 1.0000
49.9200 124.0000 1.0000
49.9300 124.0000 1.0000
49.9400 105.0000 1.0000
49.9500 92.0000 1.0000
49.9600 113.0000 1.0000
49.9700 105.0000 1.0000
49.9800 98.0000 1.0000
49.9900 116.0000 1.0000
50.0000 108.0000 1.0000
50.0100 112.0000 1.0000
50.0200 100.0000 1.0000
50.0300 95.0000 1.0000
50.0400 110.0000 1.0000
50.0500 126.0000 1.0000
50.0600 119.0000 1.0000
50.0700 127.0000 1.0000
50.0800 112.0000 1.0000
50.0900 100.0000 1.0000
50.1000 106.0000 1.0000
50.1100 113.0000 1.0000
50.1200 118.0000 1.0000
50.1300 107.0000 1.0000
50.1400 111.0000 1.0000
50.1500 111.0000 1.0000
50.1600 104.0000 1.0000
50.1700 126.0000 1.0000
50.1800 107.0000 1.0000
50.1900 114.0000 1.0000
50.2000 124.0000 1.0000
50.2100 93.0000 1.0000
50.2200 119.0000 1.0000
50.2300 95.0000 1.0000
50.2400 111.0000 1.0000
50.2500 112.0000 1.0000
50.2600 107.0000 1.0000
50.2700 117.0000 1.0000
50.2800 113.0000 1.0000
50.2900 116.0000 1.0000
50.3000 103.0000 1.0000
50.3100 108.0000 1.0000
50.3200 100.0000 1.0000
50.3300 101.0000 1.0000
50.3400 124.0000 1.0000
50.3500 111.0000 1.0000
50.3600 114.0000 1.0000
50.3700 75.0000 1.0000
50.3800 92.0000 1.0000
50.3900 98.0000 1.0000
50.4000 103.0000 1.0000
50.4100 99.0000 1.0000
50.4200 99.0000 1.0000
50.4300 88.0000 1.0000
50.4400 85.0000 1.0000
50.4500 103.0000 1.0000
50.4600 112.0000 1.0000
50.4700 113.0000 1.0000
50.4800 92.0000 1.0000
50.4900 88.0000 1.0000
50.5000 107.0000 1.0000
50.5100 107.0000 1.0000
50.5200 112.0000 1.0000
50.5300 99.0000 1.0000
50.5400 91.0000 1.0000
50.5500 115.0000 1.0000
50.5600 98.0000 1.0000
50.5700 99.0000 1.0000
50.5800 102.0000 1.0000
50.5900 106.0000 1.0000
50.6000 116.0000 1.0000
50.6100 102.0000 1.0000
50.6200 121.0000 1.0000
50.6300 112.0000 1.0000
50.6400 111.0000 1.0000
50.6500 108.0000 1.0000
50.6600 96.0000 1.0000
50.6700 101.0000 1.0000
50.6800 104.0000 1.0000
50.6900 95.0000 1.0000
50.7000 81.0000 1.0000
50.7100 78.0000 1.0000
50.7200 96.0000 1.0000
50.7300 90.0000 1.0000
50.7400 114.0000 1.0000
50.7500 105.0000 1.0000
50.7600 90.0000 1.0000
50.7700 110.0000 1.0000
50.7800 98.0000 1.0000
50.7900 88.0000 1.0000
50.8000 103.0000 1.0000
50.8100 105.0000 1.0000
50.8200 102.0000 1.0000
50.8300 97.0000 1.0000
50.8400 101.0000 1.0000
50.8500 97.0000 1.0000
50.8600 120.0000 1.0000
50.8700 90.0000 1.0000
50.8800 109.0000 1.0000
50.8900 105.0000 1.0000
50.9000 114.0000 1.0000
50.9100 109.0000 1.0000
50.9200 103.0000 1.0000
50.9300 89.0000 1.0000
50.9400 104.0000 1.0000
50.9500 110.0000 1.0000
50.9600 100.0000 1.0000
50.9700 112.0000 1.0000
50.9800 115.0000 1.0000
50.9900 105.0000 1.0000
51.0000 126.0000 1.0000
51.0100 118.0000 1.0000
51.0200 99.0000 1.0000
51.0300 106.0000 1.0000
51.0400 114.0000 1.0000
51.0500 108.0000 1.0000
51.0600 90.0000 1.0000
51.0700 100.0000 1.0000
51.0800 110.0000 1.0000
51.0900 82.0000 1.0000
51.1000 101.0000 1.0000
51.1100 109.0000 1.0000
51.1200 117.0000 1.0000
51.1300 104.0000 1.0000
51.1400 120.0000 1.0000
51.1500 108.0000 1.0000
51.1600 105.0000 1.0000
51.1700 91.0000 1.0000
51.1800 105.0000 1.0000
51.1900 93.0000 1.0000
51.2000 119.0000 1.0000
51.2100 111.0000 1.0000
51.2200 109.0000 1.0000
51.2300 104.0000 1.0000
51.2400 105.0000 1.0000
51.2500 98.0000 1.0000
51.2600 100.0000 1.0000
51.2700 105.0000 1.0000
51.2800 103.0000 1.0000
51.2900 102.0000 1.0000
51.3000 89.0000 1.0000
51.3100 103.0000 1.0000
51.3200 115.0000 1.0000
51.3300 119.0000 1.0000
51.3400 86.0000 1.0000
51.3500 111.0000 1.0000
51.3600 104.0000 1.0000
51.3700 124.0000 1.0000
51.3800 105.0000 1.0000
51.3900 114.0000 1.0000
51.4000 114.0000 1.0000
51.4100 105.0000 1.0000
51.4200 129.0000 1.0000
51.4300 91.0000 1.0000
51.4400 94.0000 1.0000
51.4500 110.0000 1.0000
51.4600 115.0000 1.0000
51.4700 113.0000 1.0000
51.4800 111.0000 1.0000
51.4900 100.0000 1.0000
51.5000 102.0000 1.0000
51.5100 116.0000 1.0000
51.5200 100.0000 1.0000
51.5300 124.0000 1.0000
51.5400 89.0000 1.0000
51.5500 87.0000 1.0000
51.5600 105.0000 1.0000
51.5700 89.0000 1.0000
51.5800 117.0000 1.0000
51.5900 98.0000 1.0000
51.6000 108.0000 1.0000
51.6100 112.0000 1.0000
51.6200 122.0000 1.0000
51.6300 99.0000 1.0000
51.6400 102.0000 1.0000
51.6500 100.0000 1.0000
51.6600 95.0000 1.0000
51.6700 116.0000 1.0000
51.6800 97.0000 1.0000
51.6900 95.0000 1.0000
51.7000 95.0000 1.0000
51.7100 117.0000 1.0000
51.7200 120.0000 1.0000
51.7300 108.0000 1.0000
51.7400 100.0000 1.0000
51.7500 97.0000 1.0000
51.7600 112.0000 1.0000
51.7700 116.0000 1.0000
51.7800 99.0000 1.0000
51.7900 106.0000 1.0000
51.8000 115.0000 1.0000
51.8100 85.0000 1.0000
51.8200 100.0000 1.0000
51.8300 96.0000 1.0000
51.8400 118.0000 1.0000
51.8500 114.0000 1.0000
51.8600 116.0000 1.0000
51.8700 91.0000 1.0000
51.8800 115.0000 1.0000
51.8900 105.0000 1.0000
51.9000 88.0000 1.0000
51.9100 109.0000 1.0000
51.9200 121.0000 1.0000
51.9300 107.0000 1.0000
51.9400 105.0000 1.0000
51.9500 109.0000 1.0000
51.9600 99.0000 1.0000
51.9700 91.0000 1.0000
51.9800 107.0000 1.0000
51.9900 96.0000 1.0000
52.0000 98.0000 1.0000
52.0100 102.0000 1.0000
52.0200 110.0000 1.0000
52.0300 101.0000 1.0000
52.0400 101.0000 1.0000
52.0500 113.0000 1.0000
52.0600 93.0000 1.0000
52.0700 98.0000 1.0000
52.0800 119.0000 1.0000
52.0900 106.0000 1.0000
52.1000 96.0000 1.0000
52.1100 102.0000 1.0000
52.1200 103.0000 1.0000
52.1300 106.0000 1.0000
52.1400 119.0000 1.0000
52.1500 108.0000 1.0000
52.1600 119.0000 1.0000
52.1700 99.0000 1.0000
52.1800 96.0000 1.0000
52.1900 84.0000 1.0000
52.2000 112.0000 1.0000
52.2100 108.0000 1.0000
52.2200 111.0000 1.0000
52.2300 112.0000 1.0000
52.2400 105.0000 1.0000
52.2500 92.0000 1.0000
52.2600 125.0000 1.0000
52.2700 111.0000 1.0000
52.2800 93.0000 1.0000
52.2900 104.0000 1.0000
52.3000 103.0000 1.0000
52.3100 127.0000 1.0000
52.3200 124.0000 1.0000
52.3300 106.0000 1.0000
52.3400 125.0000 1.0000
52.3500 111.0000 1.0000
52.3600 125.0000 1.0000
52.3700 108.0000 1.0000
52.3800 106.0000 1.0000
52.3900 105.0000 1.0000
52.4000 109.0000 1.0000
52.4100 108.0000 1.0000
52.4200 93.0000 1.0000
52.4300 97.0000 1.0000
52.4400 114.0000 1.0000
52.4500 119.0000 1.0000
52.4600 109.0000 1.0000
52.4700 112.0000 1.0000
52.4800 111.0000 1.0000
52.4900 104.0000 1.0000
52.5000 85.0000 1.0000
52.5100 92.0000 1.0000
52.5200 106.0000 1.0000
52.5300 130.0000 1.0000
52.5400 107.0000 1.0000
52.5500 99.0000 1.0000
52.5600 102.0000 1.0000
52.5700 92.0000 1.0000
52.5800 101.0000 1.0000
52.5900 106.0000 1.0000
52.6000 92.0000 1.0000
52.6100 103.0000 1.0000
52.6200 100.0000 1.0000
52.6300 121.0000 1.0000
52.6400 115.0000 1.0000
52.6500 105.0000 1.0000
52.6600 102.0000 1.0000
52.6700 100.0000 1.0000
52.6800 104.0000 1.0000
52.6900 100.0000 1.0000
52.7000 101.0000 1.0000
52.7100 101.0000 1.0000
52.7200 112.0000 1.0000
52.7300 112.0000 1.0000
52.7400 116.0000 1.0000
52.7500 113.0000 1.0000
52.7600 107.0000 1.0000
52.7700 129.0000 1.0000
52.7800 133.0000 1.0000
52.7900 143.0000 1.0000
52.8000 114.0000 1.0000
52.8100 120.0000 1.0000
52.8200 134.0000 1.0000
52.8300 125.0000 1.0000
52.8400 122.0000 1.0000
52.8500 128.0000 1.0000
52.8600 133.0000 1.0000
52.8700 134.0000 1.0000
52.8800 125.0000 1.0000
52.8900 142.0000 1.0000
52.9000 143.0000 1.0000
52.9100 139.0000 1.0000
52.9200 148.0000 1.0000
52.9300 163.0000 1.0000
52.9400 158.0000 1.0000
52.9500 169.0000 1.0000
52.9600 147.0000 1.0000
52.9700 153.0000 1.0000
52.9800 157.0000 1.0000
52.9900 157.0000 1.0000
53.0000 155.0000 1.0000
53.0100 166.0000 1.0000
53.0200 159.0000 1.0000
53.0300 124.0000 1.0000
53.0400 127.0000 1.0000
53.0500 149.0000 1.0000
53.0600 140.0000 1.0000
53.0700 143.0000 1.0000
53.0800 134.0000 1.0000
53.0900 150.0000 1.0000
53.1000 133.0000 1.0000
53.1100 141.0000 1.0000
53.1200 134.0000 1.0000
53.1300 123.0000 1.0000
53.1400 119.0000 1.0000
53.1500 137.0000 1.0000
53.1600 149.0000 1.0000
53.1700 111.0000 1.0000
53.1800 120.0000 1.0000
53.1900 123.0000 1.0000
53.2000 118.0000 1.0000
53.2100 136.0000 1.0000
53.2200 115.0000 1.0000
53.2300 118.0000 1.0000
53.2400 116.0000 1.0000
53.2500 103.0000 1.0000
53.2600 86.0000 1.0000
53.2700 110.0000 1.0000
53.2800 116.0000 1.0000
53.2900 115.0000 1.0000
53.3000 114.0000 1.0000
53.3100 101.0000 1.0000
53.3200 114.0000 1.0000
53.3300 101.0000 1.0000
53.3400 102.0000 1.0000
53.3500 112.0000 1.0000
53.3600 98.0000 1.0000
53.3700 101.0000 1.0000
53.3800 113.0000 1.0000
53.3900 99.0000 1.0000
53.4000 104.0000 1.0000
53.4100 116.0000 1.0000
53.4200 115.0000 1.0000
53.4300 123.0000 1.0000
53.4400 123.0000 1.0000
53.4500 112.0000 1.0000
53.4600 119.0000 1.0000
53.4700 107.0000 1.0000
53.4800 130.0000 1.0000
53.4900 96.0000 1.0000
53.5000 107.0000 1.0000
53.5100 116.0000 1.0000
53.5200 114.0000 1.0000
53.5300 141.0000 1.0000
53.5400 129.0000 1.0000
53.5500 112.0000 1.0000
53.5600 119.0000 1.0000
53.5700 109.0000 1.0000
53.5800 110.0000 1.0000
53.5900 117.0000 1.0000
53.6000 115.0000 1.0000
53.6100 87.0000 1.0000
53.6200 89.0000 1.0000
53.6300 111.0000 1.0000
53.6400 100.0000 1.0000
53.6500 114.0000 1.0000
53.6600 101.0000 1.0000
53.6700 98.0000 1.0000
53.6800 110.0000 1.0000
53.6900 101.0000 1.0000
53.7000 109.0000 1.0000
53.7100 103.0000 1.0000
53.7200 114.0000 1.0000
53.7300 110.0000 1.0000
53.7400 101.0000 1.0000
53.7500 115.0000 1.0000
53.7600 100.0000 1.0000
53.7700 107.0000 1.0000
53.7800 108.0000 1.0000
53.7900 101.0000 1.0000
53.8000 98.0000 1.0000
53.8100 109.0000 1.0000
53.8200 106.0000 1.0000
53.8300 73.0000 1.0000
53.8400 139.0000 1.0000
53.8500 94.0000 1.0000
53.8600 111.0000 1.0000
53.8700 119.0000 1.0000
53.8800 98.0000 1.0000
53.8900 109.0000 1.0000
53.9000 97.0000 1.0000
53.9100 120.0000 1.0000
53.9200 86.0000 1.0000
53.9300 109.0000 1.0000
53.9400 119.0000 1.0000
53.9500 114.0000 1.0000
53.9600 100.0000 1.0000
53.9700 118.0000 1.0000
53.9800 83.0000 1.0000
53.9900 117.0000 1.0000
54.0000 122.0000 1.0000
54.0100 90.0000 1.0000
54.0200 95.0000 1.0000
54.0300 86.0000 1.0000
54.0400 119.0000 1.0000
54.0500 103.0000 1.0000
54.0600 86.0000 1.0000
54.0700 107.0000 1.0000
54.0800 106.0000 1.0000
54.0900 132.0000 1.0000
54.1000 98.0000 1.0000
54.1100 113.0000 1.0000
54.1200 94.0000 1.0000
54.1300 94.0000 1.0000
54.1400 120.0000 1.0000
54.1500 101.0000 1.0000
54.1600 108.0000 1.0000
54.1700 104.0000 1.0000
54.1800 104.0000 1.0000
54.1900 116.0000 1.0000
54.2000 117.0000 1.0000
54.2100 105.0000 1.0000
54.2200 111.0000 1.0000
54.2300 121.0000 1.0000
54.2400 98.0000 1.0000
54.2500 109.0000 1.0000
54.2600 88.0000 1.0000
54.2700 114.0000 1.0000
54.2800 93.0000 1.0000
54.2900 99.0000 1.0000
54.3000 88.0000 1.0000
54.3100 111.0000 1.0000
54.3200 99.0000 1.0000
54.3300 109.0000 1.0000
54.3400 108.0000 1.0000
54.3500 119.0000 1.0000
54.3600 93.0000 1.0000
54.3700 109.0000 1.0000
54.3800 104.0000 1.0000
54.3900 107.0000 1.0000
54.4000 112.0000 1.0000
54.4100 129.0000 1.0000
54.4200 107.0000 1.0000
54.4300 103.0000 1.0000
54.4400 104.0000 1.0000
54.4500 111.0000 1.0000
54.4600 95.0000 1.0000
54.4700 99.0000 1.0000
54.4800 96.0000 1.0000
54.4900 112.0000 1.0000
54.5000 133.0000 1.0000
54.5100 101.0000 1.0000
54.5200 122.0000 1.0000
54.5300 96.0000 1.0000
54.5400 90.0000 1.0000
54.5500 100.0000 1.0000
54.5600 97.0000 1.0000
54.5700 104.0000 1.0000
54.5800 91.0000 1.0000
54.5900 102.0000 1.0000
54.6000 126.0000 1.0000
54.6100 136.0000 1.0000
54.6200 105.0000 1.0000
54.6300 105.0000 1.0000
54.6400 106.0000 1.0000
54.6500 114.0000 1.0000
54.6600 126.0000 1.0000
54.6700 93.0000 1.0000
54.6800 120.0000 1.0000
54.6900 88.0000 1.0000
54.7000 97.0000 1.0000
54.7100 102.0000 1.0000
54.7200 116.0000 1.0000
54.7300 83.0000 1.0000
54.7400 97.0000 1.0000
54.7500 104.0000 1.0000
54.7600 110.0000 1.0000
54.7700 92.0000 1.0000
54.7800 93.0000 1.0000
54.7900 113.0000 1.0000
54.8000 118.0000 1.0000
54.8100 111.0000 1.0000
54.8200 117.0000 1.0000
54.8300 99.0000 1.0000
54.8400 102.0000 1.0000
54.8500 114.0000 1.0000
54.8600 105.0000 1.0000
54.8700 92.0000 1.0000
54.8800 101.0000 1.0000
54.8900 107.0000 1.0000
54.9000 102.0000 1.0000
54.9100 123.0000 1.0000
54.9200 109.0000 1.0000
54.9300 103.0000 1.0000
54.9400 111.0000 1.0000
54.9500 101.0000 1.0000
54.9600 100.0000 1.0000
54.9700 111.0000 1.0000
54.9800 105.0000 1.0000
54.9900 111.0000 1.0000
55.0000 94.0000 1.0000
55.0100 111.0000 1.0000
55.0200 97.0000 1.0000
55.0300 104.0000 1.0000
55.0400 107.0000 1.0000
55.0500 101.0000 1.0000
55.0600 96.0000 1.0000
55.0700 118.0000 1.0000
55.0800 92.0000 1.0000
55.0900 96.0000 1.0000
55.1000 122.0000 1.0000
55.1100 105.0000 1.0000
55.1200 108.0000 1.0000
55.1300 97.0000 1.0000
55.1400 98.0000 1.0000
55.1500 114.0000 1.0000
55.1600 116.0000 1.0000
55.1700 81.0000 1.0000
55.1800 125.0000 1.0000
55.1900 96.0000 1.0000
55.2000 102.0000 1.0000
55.2100 110.0000 1.0000
55.2200 110.0000 1.0000
55.2300 107.0000 1.0000
55.2400 107.0000 1.0000
55.2500 112.0000 1.0000
55.2600 117.0000 1.0000
55.2700 121.0000 1.0000
55.2800 98.0000 1.0000
55.2900 111.0000 1.0000
55.3000 108.0000 1.0000
55.3100 110.0000 1.0000
55.3200 110.0000 1.0000
55.3300 116.0000 1.0000
55.3400 102.0000 1.0000
55.3500 111.0000 1.0000
55.3600 92.0000 1.0000
55.3700 108.0000 1.0000
55.3800 110.0000 1.0000
55.3900 125.0000 1.0000
55.4000 107.0000 1.0000
55.4100 107.0000 1.0000
55.4200 104.0000 1.0000
55.4300 114.0000 1.0000
55.4400 110.0000 1.0000
55.4500 111.0000 1.0000
55.4600 110.0000 1.0000
55.4700 119.0000 1.0000
55.4800 95.0000 1.0000
55.4900 99.0000 1.0000
55.5000 107.0000 1.0000
55.5100 113.0000 1.0000
55.5200 111.0000 1.0000
55.5300 114.0000 1.0000
55.5400 98.0000 1.0000
55.5500 101.0000 1.0000
55.5600 109.0000 1.0000
55.5700 90.0000 1.0000
55.5800 106.0000 1.0000
55.5900 121.0000 1.0000
55.6000 103.0000 1.0000
55.6100 103.0000 1.0000
55.6200 83.0000 1.0000
55.6300 103.0000 1.0000
55.6400 106.0000 1.0000
55.6500 106.0000 1.0000
55.6600 92.0000 1.0000
55.6700 105.0000 1.0000
55.6800 106.0000 1.0000
55.6900 83.0000 1.0000
55.7000 113.0000 1.0000
55.7100 109.0000 1.0000
55.7200 93.0000 1.0000
55.7300 92.0000 1.0000
55.7400 88.0000 1.0000
55.7500 96.0000 1.0000
55.7600 89.0000 1.0000
55.7700 95.0000 1.0000
55.7800 101.0000 1.0000
55.7900 109.0000 1.0000
55.8000 130.0000 1.0000
55.8100 112.0000 1.0000
55.8200 121.0000 1.0000
55.8300 93.0000 1.0000
55.8400 104.0000 1.0000
55.8500 109.0000 1.0000
55.8600 90.0000 1.0000
55.8700 110.0000 1.0000
55.8800 132.0000 1.0000
55.8900 89.0000 1.0000
55.9000 99.0000 1.0000
55.9100 109.0000 1.0000
55.9200 96.0000 1.0000
55.9300 97.0000 1.0000
55.9400 103.0000 1.0000
55.9500 119.0000 1.0000
55.9600 114.0000 1.0000
55.9700 103.0000 1.0000
55.9800 111.0000 1.0000
55.9900 95.0000 1.0000
56.0000 97.0000 1.0000
56.0100 117.0000 1.0000
56.0200 101.0000 1.0000
56.0300 89.0000 1.0000
56.0400 113.0000 1.0000
56.0500 108.0000 1.0000
56.0600 111.0000 1.0000
56.0700 109.0000 1.0000
56.0800 88.0000 1.0000
56.0900 97.0000 1.0000
56.1000 117.0000 1.0000
56.1100 102.0000 1.0000
56.1200 102.0000 1.0000
56.1300 133.0000 1.0000
56.1400 97.0000 1.0000
56.1500 101.0000 1.0000
56.1600 103.0000 1.0000
56.1700 113.0000 1.0000
56.1800 101.0000 1.0000
56.1900 111.0000 1.0000
56.2000 111.0000 1.0000
56.2100 109.0000 1.0000
56.2200 117.0000 1.0000
56.2300 112.0000 1.0000
56.2400 114.0000 1.0000
56.2500 123.0000 1.0000
56.2600 111.0000 1.0000
56.2700 114.0000 1.0000
56.2800 112.0000 1.0000
56.2900 108.0000 1.0000
56.3000 109.0000 1.0000
56.3100 90.0000 1.0000
56.3200 92.0000 1.0000
56.3300 100.0000 1.0000
56.3400 113.0000 1.0000
56.3500 103.0000 1.0000
56.3600 114.0000 1.0000
56.3700 123.0000 1.0000
56.3800 107.0000 1.0000
56.3900 110.0000 1.0000
56.4000 110.0000 1.0000
56.4100 93.0000 1.0000
56.4200 89.0000 1.0000
56.4300 90.0000 1.0000
56.4400 100.0000 1.0000
56.4500 117.0000 1.0000
56.4600 109.0000 1.0000
56.4700 101.0000 1.0000
56.4800 121.0000 1.0000
56.4900 93.0000 1.0000
56.5000 103.0000 1.0000
56.5100 98.0000 1.0000
56.5200 102.0000 1.0000
56.5300 115.0000 1.0000
56.5400 107.0000 1.0000
56.5500 101.0000 1.0000
56.5600 107.0000 1.0000
56.5700 99.0000 1.0000
56.5800 108.0000 1.0000
56.5900 100.0000 1.0000
56.6000 92.0000 1.0000
56.6100 126.0000 1.0000
56.6200 102.0000 1.0000
56.6300 100.0000 1.0000
56.6400 127.0000 1.0000
56.6500 101.0000 1.0000
56.6600 102.0000 1.0000
56.6700 100.0000 1.0000
56.6800 105.0000 1.0000
56.6900 107.0000 1.0000
56.7000 104.0000 1.0000
56.7100 108.0000 1.0000
56.7200 94.0000 1.0000
56.7300 112.0000 1.0000
56.7400 101.0000 1.0000
56.7500 98.0000 1.0000
56.7600 116.0000 1.0000
56.7700 115.0000 1.0000
56.7800 112.0000 1.0000
56.7900 104.0000 1.0000
56.8000 94.0000 1.0000
56.8100 113.0000 1.0000
56.8200 109.0000 1.0000
56.8300 119.0000 1.0000
56.8400 104.0000 1.0000
56.8500 108.0000 1.0000
56.8600 94.0000 1.0000
56.8700 106.0000 1.0000
56.8800 122.0000 1.0000
56.8900 117.0000 1.0000
56.9000 107.0000 1.0000
56.9100 110.0000 1.0000
56.9200 112.0000 1.0000
56.9300 113.0000 1.0000
56.9400 108.0000 1.0000
56.9500 102.0000 1.0000
56.9600 98.0000 1.0000
56.9700 80.0000 1.0000
56.9800 93.0000 1.0000
56.9900 109.0000 1.0000
57.0000 103.0000 1.0000
57.0100 106.0000 1.0000
57.0200 96.0000 1.0000
57.0300 105.0000 1.0000
57.0400 99.0000 1.0000
57.0500 110.0000 1.0000
57.0600 94.0000 1.0000
57.0700 107.0000 1.0000
57.0800 92.0000 1.0000
57.0900 122.0000 1.0000
57.1000 92.0000 1.0000
57.1100 117.0000 1.0000
57.1200 107.0000 1.0000
57.1300 111.0000 1.0000
57.1400 102.0000 1.0000
57.1500 106.0000 1.0000
57.1600 111.0000 1.0000
57.1700 103.0000 1.0000
57.1800 101.0000 1.0000
57.1900 87.0000 1.0000
57.2000 112.0000 1.0000
57.2100 97.0000 1.0000
57.2200 108.0000 1.0000
57.2300 107.0000 1.0000
57.2400 98.0000 1.0000
57.2500 105.0000 1.0000
57.2600 112.0000 1.0000
57.2700 100.0000 1.0000
57.2800 102.0000 1.0000
57.2900 127.0000 1.0000
57.3000 127.0000 1.0000
57.3100 108.0000 1.0000
57.3200 108.0000 1.0000
57.3300 101.0000 1.0000
57.3400 115.0000 1.0000
57.3500 107.0000 1.0000
57.3600 115.0000 1.0000
57.3700 93.0000 1.0000
57.3800 129.0000 1.0000
57.3900 100.0000 1.0000
57.4000 110.0000 1.0000
57.4100 106.0000 1.0000
57.4200 104.0000 1.0000
57.4300 120.0000 1.0000
57.4400 92.0000 1.0000
57.4500 108.0000 1.0000
57.4600 121.0000 1.0000
57.4700 97.0000 1.0000
57.4800 106.0000 1.0000
57.4900 99.0000 1.0000
57.5000 116.0000 1.0000
57.5100 95.0000 1.0000
57.5200 111.0000 1.0000
57.5300 100.0000 1.0000
57.5400 104.0000 1.0000
57.5500 116.0000 1.0000
57.5600 114.0000 1.0000
57.5700 106.0000 1.0000
57.5800 125.0000 1.0000
57.5900 127.0000 1.0000
57.6000 98.0000 1.0000
57.6100 116.0000 1.0000
57.6200 96.0000 1.0000
57.6300 93.0000 1.0000
57.6400 94.0000 1.0000
57.6500 97.0000 1.0000
57.6600 101.0000 1.0000
57.6700 96.0000 1.0000
57.6800 108.0000 1.0000
57.6900 105.0000 1.0000
57.7000 103.0000 1.0000
57.7100 124.0000 1.0000
57.7200 114.0000 1.0000
57.7300 109.0000 1.0000
57.7400 99.0000 1.0000
57.7500 112.0000 1.0000
57.7600 110.0000 1.0000
57.7700 101.0000 1.0000
57.7800 105.0000 1.0000
57.7900 122.0000 1.0000
57.8000 100.0000 1.0000
57.8100 112.0000 1.0000
57.8200 124.0000 1.0000
57.8300 121.0000 1.0000
57.8400 118.0000 1.0000
57.8500 128.0000 1.0000
57.8600 95.0000 1.0000
57.8700 105.0000 1.0000
57.8800 98.0000 1.0000
57.8900 96.0000 1.0000
57.9000 89.0000 1.0000
57.9100 132.0000 1.0000
57.9200 119.0000 1.0000
57.9300 103.0000 1.0000
57.9400 108.0000 1.0000
57.9500 107.0000 1.0000
57.9600 104.0000 1.0000
57.9700 95.0000 1.0000
57.9800 117.0000 1.0000
57.9900 95.0000 1.0000
58.0000 109.0000 1.0000
58.0100 97.0000 1.0000
58.0200 112.0000 1.0000
58.0300 97.0000 1.0000
58.0400 93.0000 1.0000
58.0500 107.0000 1.0000
58.0600 96.0000 1.0000
58.0700 115.0000 1.0000
58.0800 113.0000 1.0000
58.0900 110.0000 1.0000
58.1000 110.0000 1.0000
58.1100 114.0000 1.0000
58.1200 110.0000 1.0000
58.1300 115.0000 1.0000
58.1400 113.0000 1.0000
58.1500 98.0000 1.0000
58.1600 125.0000 1.0000
58.1700 96.0000 1.0000
58.1800 100.0000 1.0000
58.1900 108.0000 1.0000
58.2000 120.0000 1.0000
58.2100 97.0000 1.0000
58.2200 112.0000 1.0000
58.2300 88.0000 1.0000
58.2400 95.0000 1.0000
58.2500 78.0000 1.0000
58.2600 118.0000 1.0000
58.2700 86.0000 1.0000
58.2800 105.0000 1.0000
58.2900 107.0000 1.0000
58.3000 121.0000 1.0000
58.3100 79.0000 1.0000
58.3200 110.0000 1.0000
58.3300 92.0000 1.0000
58.3400 102.0000 1.0000
58.3500 112.0000 1.0000
58.3600 128.0000 1.0000
58.3700 100.0000 1.0000
58.3800 84.0000 1.0000
58.3900 105.0000 1.0000
58.4000 96.0000 1.0000
58.4100 120.0000 1.0000
58.4200 112.0000 1.0000
58.4300 86.0000 1.0000
58.4400 116.0000 1.0000
58.4500 107.0000 1.0000
58.4600 108.0000 1.0000
58.4700 125.0000 1.0000
58.4800 84.0000 1.0000
58.4900 105.0000 1.0000
58.5000 106.0000 1.0000
58.5100 110.0000 1.0000
58.5200 111.0000 1.0000
58.5300 94.0000 1.0000
58.5400 115.0000 1.0000
58.5500 97.0000 1.0000
58.5600 81.0000 1.0000
58.5700 91.0000 1.0000
58.5800 111.0000 1.0000
58.5900 95.0000 1.0000
58.6000 122.0000 1.0000
58.6100 107.0000 1.0000
58.6200 95.0000 1.0000
58.6300 103.0000 1.0000
58.6400 106.0000 1.0000
58.6500 91.0000 1.0000
58.6600 109.0000 1.0000
58.6700 109.0000 1.0000
58.6800 97.0000 1.0000
58.6900 97.0000 1.0000
58.7000 119.0000 1.0000
58.7100 106.0000 1.0000
58.7200 100.0000 1.0000
58.7300 111.0000 1.0000
58.7400 100.0000 1.0000
58.7500 98.0000 1.0000
58.7600 113.0000 1.0000
58.7700 122.0000 1.0000
58.7800 105.0000 1.0000
58.7900 106.0000 1.0000
58.8000 104.0000 1.0000
58.8100 121.0000 1.0000
58.8200 127.0000 1.0000
58.8300 110.0000 1.0000
58.8400 108.0000 1.0000
58.8500 109.0000 1.0000
58.8600 98.0000 1.0000
58.8700 107.0000 1.0000
58.8800 106.0000 1.0000
58.8900 114.0000 1.0000
58.9000 114.0000 1.0000
58.9100 119.0000 1.0000
58.9200 91.0000 1.0000
58.9300 100.0000 1.0000
58.9400 96.0000 1.0000
58.9500 104.0000 1.0000
58.9600 117.0000 1.0000
58.9700 107.0000 1.0000
58.9800 99.0000 1.0000
58.9900 104.0000 1.0000
59.0000 110.0000 1.0000
59.0100 103.0000 1.0000
59.0200 94.0000 1.0000
59.0300 113.0000 1.0000
59.0400 98.0000 1.0000
59.0500 112.0000 1.0000
59.0600 87.0000 1.0000
59.0700 118.0000 1.0000
59.0800 94.0000 1.0000
59.0900 99.0000 1.0000
59.1000 117.0000 1.0000
59.1100 121.0000 1.0000
59.1200 120.0000 1.0000
59.1300 98.0000 1.0000
59.1400 97.0000 1.0000
59.1500 101.0000 1.0000
59.1600 88.0000 1.0000
59.1700 92.0000 1.0000
59.1800 103.0000 1.0000
59.1900 104.0000 1.0000
59.2000 106.0000 1.0000
59.2100 111.0000 1.0000
59.2200 109.0000 1.0000
59.2300 116.0000 1.0000
59.2400 108.0000 1.0000
59.2500 117.0000 1.0000
59.2600 98.0000 1.0000
59.2700 107.0000 1.0000
59.2800 104.0000 1.0000
59.2900 80.0000 1.0000
59.3000 113.0000 1.0000
59.3100 114.0000 1.0000
59.3200 118.0000 1.0000
59.3300 101.0000 1.0000
59.3400 114.0000 1.0000
59.3500 109.0000 1.0000
59.3600 111.0000 1.0000
59.3700 106.0000 1.0000
59.3800 115.0000 1.0000
59.3900 112.0000 1.0000
59.4000 112.0000 1.0000
59.4100 105.0000 1.0000
59.4200 103.0000 1.0000
59.4300 101.0000 1.0000
59.4400 119.0000 1.0000
59.4500 117.0000 1.0000
59.4600 99.0000 1.0000
59.4700 110.0000 1.0000
59.4800 94.0000 1.0000
59.4900 108.0000 1.0000
59.5000 86.0000 1.0000
59.5100 120.0000 1.0000
59.5200 89.0000 1.0000
59.5300 114.0000 1.0000
59.5400 101.0000 1.0000
59.5500 86.0000 1.0000
59.5600 100.0000 1.0000
59.5700 92.0000 1.0000
59.5800 100.0000 1.0000
59.5900 107.0000 1.0000
59.6000 109.0000 1.0000
59.6100 119.0000 1.0000
59.6200 111.0000 1.0000
59.6300 103.0000 1.0000
59.6400 111.0000 1.0000
59.6500 105.0000 1.0000
59.6600 128.0000 1.0000
59.6700 106.0000 1.0000
59.6800 123.0000 1.0000
59.6900 111.0000 1.0000
59.7000 100.0000 1.0000
59.7100 120.0000 1.0000
59.7200 116.0000 1.0000
59.7300 108.0000 1.0000
59.7400 95.0000 1.0000
59.7500 113.0000 1.0000
59.7600 100.0000 1.0000
59.7700 111.0000 1.0000
59.7800 107.0000 1.0000
59.7900 82.0000 1.0000
59.8000 95.0000 1.0000
59.8100 87.0000 1.0000
59.8200 116.0000 1.0000
59.8300 108.0000 1.0000
59.8400 102.0000 1.0000
59.8500 116.0000 1.0000
59.8600 103.0000 1.0000
59.8700 99.0000 1.0000
59.8800 115.0000 1.0000
59.8900 109.0000 1.0000
59.9000 95.0000 1.0000
59.9100 108.0000 1.0000
59.9200 113.0000 1.0000
59.9300 103.0000 1.0000
59.9400 100.0000 1.0000
59.9500 122.0000 1.0000
59.9600 105.0000 1.0000
59.9700 105.0000 1.0000
59.9800 111.0000 1.0000
59.9900 114.0000 1.0000
60.0000 86.0000 1.0000
60.0100 114.0000 1.0000
60.0200 103.0000 1.0000
60.0300 92.0000 1.0000
60.0400 109.0000 1.0000
60.0500 130.0000 1.0000
60.0600 113.0000 1.0000
60.0700 117.0000 1.0000
60.0800 108.0000 1.0000
60.0900 109.0000 1.0000
60.1000 105.0000 1.0000
60.1100 111.0000 1.0000
60.1200 106.0000 1.0000
60.1300 102.0000 1.0000
60.1400 98.0000 1.0000
60.1500 110.0000 1.0000
60.1600 110.0000 1.0000
60.1700 107.0000 1.0000
60.1800 106.0000 1.0000
60.1900 85.0000 1.0000
60.2000 105.0000 1.0000
60.2100 95.0000 1.0000
60.2200 106.0000 1.0000
60.2300 86.0000 1.0000
60.2400 113.0000 1.0000
60.2500 108.0000 1.0000
60.2600 107.0000 1.0000
60.2700 113.0000 1.0000
60.2800 123.0000 1.0000
60.2900 115.0000 1.0000
60.3000 113.0000 1.0000
60.3100 99.0000 1.0000
60.3200 108.0000 1.0000
60.3300 112.0000 1.0000
60.3400 107.0000 1.0000
60.3500 124.0000 1.0000
60.3600 84.0000 1.0000
60.3700 89.0000 1.0000
60.3800 130.0000 1.0000
60.3900 108.0000 1.0000
60.4000 121.0000 1.0000
60.4100 108.0000 1.0000
60.4200 101.0000 1.0000
60.4300 82.0000 1.0000
60.4400 95.0000 1.0000
60.4500 109.0000 1.0000
60.4600 96.0000 1.0000
60.4700 110.0000 1.0000
60.4800 98.0000 1.0000
60.4900 94.0000 1.0000
60.5000 87.0000 1.0000
60.5100 118.0000 1.0000
60.5200 111.0000 1.0000
60.5300 99.0000 1.0000
60.5400 88.0000 1.0000
60.5500 103.0000 1.0000
60.5600 124.0000 1.0000
60.5700 88.0000 1.0000
60.5800 120.0000 1.0000
60.5900 117.0000 1.0000
60.6000 106.0000 1.0000
60.6100 107.0000 1.0000
60.6200 123.0000 1.0000
60.6300 97.0000 1.0000
60.6400 100.0000 1.0000
60.6500 108.0000 1.0000
60.6600 109.0000 1.0000
60.6700 115.0000 1.0000
60.6800 101.0000 1.0000
60.6900 91.0000 1.0000
60.7000 111.0000 1.0000
60.7100 100.0000 1.0000
60.7200 111.0000 1.0000
60.7300 106.0000 1.0000
60.7400 101.0000 1.0000
60.7500 114.0000 1.0000
60.7600 113.0000 1.0000
60.7700 97.0000 1.0000
60.7800 105.0000 1.0000
60.7900 122.0000 1.0000
60.8000 110.0000 1.0000
60.8100 124.0000 1.0000
60.8200 109.0000 1.0000
60.8300 102.0000 1.0000
60.8400 111.0000 1.0000
60.8500 101.0000 1.0000
60.8600 89.0000 1.0000
60.8700 109.0000 1.0000
60.8800 109.0000 1.0000
60.8900 113.0000 1.0000
60.9000 93.0000 1.0000
60.9100 100.0000 1.0000
60.9200 107.0000 1.0000
60.9300 113.0000 1.0000
60.9400 117.0000 1.0000
60.9500 118.0000 1.0000
60.9600 103.0000 1.0000
60.9700 104.0000 1.0000
60.9800 104.0000 1.0000
60.9900 107.0000 1.0000
61.0000 108.0000 1.0000
61.0100 109.0000 1.0000
61.0200 94.0000 1.0000
61.0300 109.0000 1.0000
61.0400 93.0000 1.0000
61.0500 93.0000 1.0000
61.0600 112.0000 1.0000
61.0700 87.0000 1.0000
61.0800 124.0000 1.0000
61.0900 109.0000 1.0000
61.1000 114.0000 1.0000
61.1100 102.0000 1.0000
61.1200 97.0000 1.0000
61.1300 107.0000 1.0000
61.1400 117.0000 1.0000
61.1500 114.0000 1.0000
61.1600 127.0000 1.0000
61.1700 112.0000 1.0000
61.1800 106.0000 1.0000
61.1900 122.0000 1.0000
61.2000 114.0000 1.0000
61.2100 112.0000 1.0000
61.2200 114.0000 1.0000
61.2300 91.0000 1.0000
61.2400 108.0000 1.0000
61.2500 106.0000 1.0000
61.2600 106.0000 1.0000
61.2700 109.0000 1.0000
61.2800 107.0000 1.0000
61.2900 99.0000 1.0000
61.3000 101.0000 1.0000
61.3100 108.0000 1.0000
61.3200 106.0000 1.0000
61.3300 119.0000 1.0000
61.3400 97.0000 1.0000
61.3500 104.0000 1.0000
61.3600 113.0000 1.0000
61.3700 113.0000 1.0000
61.3800 102.0000 1.0000
61.3900 113.0000 1.0000
61.4000 120.0000 1.0000
61.4100 113.0000 1.0000
61.4200 120.0000 1.0000
61.4300 103.0000 1.0000
61.4400 110.0000 1.0000
61.4500 120.0000 1.0000
61.4600 105.0000 1.0000
61.4700 119.0000 1.0000
61.4800 113.0000 1.0000
61.4900 105.0000 1.0000
61.5000 115.0000 1.0000
61.5100 106.0000 1.0000
61.5200 105.0000 1.0000
61.5300 94.0000 1.0000
61.5400 104.0000 1.0000
61.5500 124.0000 1.0000
61.5600 106.0000 1.0000
61.5700 106.0000 1.0000
61.5800 90.0000 1.0000
61.5900 101.0000 1.0000
61.6000 116.0000 1.0000
61.6100 113.0000 1.0000
61.6200 106.0000 1.0000
61.6300 139.0000 1.0000
61.6400 112.0000 1.0000
61.6500 117.0000 1.0000
61.6600 121.0000 1.0000
61.6700 112.0000 1.0000
61.6800 98.0000 1.0000
61.6900 118.0000 1.0000
61.7000 85.0000 1.0000
61.7100 102.0000 1.0000
61.7200 113.0000 1.0000
61.7300 91.0000 1.0000
61.7400 100.0000 1.0000
61.7500 125.0000 1.0000
61.7600 120.0000 1.0000
61.7700 101.0000 1.0000
61.7800 88.0000 1.0000
61.7900 118.0000 1.0000
61.8000 95.0000 1.0000
61.8100 110.0000 1.0000
61.8200 104.0000 1.0000
61.8300 95.0000 1.0000
61.8400 89.0000 1.0000
61.8500 100.0000 1.0000
61.8600 104.0000 1.0000
61.8700 105.0000 1.0000
61.8800 106.0000 1.0000
61.8900 112.0000 1.0000
61.9000 92.0000 1.0000
61.9100 114.0000 1.0000
61.9200 95.0000 1.0000
61.9300 110.0000 1.0000
61.9400 116.0000 1.0000
61.9500 117.0000 1.0000
61.9600 118.0000 1.0000
61.9700 105.0000 1.0000
61.9800 102.0000 1.0000
61.9900 104.0000 1.0000
62.0000 105.0000 1.0000
62.0100 107.0000 1.0000
62.0200 94.0000 1.0000
62.0300 113.0000 1.0000
62.0400 103.0000 1.0000
62.0500 110.0000 1.0000
62.0600 103.0000 1.0000
62.0700 97.0000 1.0000
62.0800 116.0000 1.0000
62.0900 112.0000 1.0000
62.1000 107.0000 1.0000
62.1100 110.0000 1.0000
62.1200 108.0000 1.0000
62.1300 109.0000 1.0000
62.1400 94.0000 1.0000
62.1500 109.0000 1.0000
62.1600 116.0000 1.0000
62.1700 118.0000 1.0000
62.1800 96.0000 1.0000
62.1900 121.0000 1.0000
62.2000 124.0000 1.0000
62.2100 111.0000 1.0000
62.2200 119.0000 1.0000
62.2300 101.0000 1.0000
62.2400 106.0000 1.0000
62.2500 112.0000 1.0000
62.2600 81.0000 1.0000
62.2700 101.0000 1.0000
62.2800 106.0000 1.0000
62.2900 114.0000 1.0000
62.3000 103.0000 1.0000
62.3100 117.0000 1.0000
62.3200 115.0000 1.0000
62.3300 104.0000 1.0000
62.3400 97.0000 1.0000
62.3500 106.0000 1.0000
62.3600 94.0000 1.0000
62.3700 106.0000 1.0000
62.3800 106.0000 1.0000
62.3900 107.0000 1.0000
62.4000 107.0000 1.0000
62.4100 93.0000 1.0000
62.4200 114.0000 1.0000
62.4300 100.0000 1.0000
62.4400 105.0000 1.0000
62.4500 106.0000 1.0000
62.4600 128.0000 1.0000
62.4700 101.0000 1.0000
62.4800 99.0000 1.0000
62.4900 103.0000 1.0000
62.5000 97.0000 1.0000
62.5100 110.0000 1.0000
62.5200 120.0000 1.0000
62.5300 117.0000 1.0000
62.5400 94.0000 1.0000
62.5500 106.0000 1.0000
62.5600 122.0000 1.0000
62.5700 108.0000 1.0000
62.5800 104.0000 1.0000
62.5900 115.0000 1.0000
62.6000 127.0000 1.0000
62.6100 103.0000 1.0000
62.6200 113.0000 1.0000
62.6300 91.0000 1.0000
62.6400 121.0000 1.0000
62.6500 109.0000 1.0000
62.6600 106.0000 1.0000
62.6700 101.0000 1.0000
62.6800 111.0000 1.0000
62.6900 121.0000 1.0000
62.7000 116.0000 1.0000
62.7100 97.0000 1.0000
62.7200 112.0000 1.0000
62.7300 101.0000 1.0000
62.7400 97.0000 1.0000
62.7500 99.0000 1.0000
62.7600 98.0000 1.0000
62.7700 114.0000 1.0000
62.7800 104.0000 1.0000
62.7900 101.0000 1.0000
62.8000 93.0000 1.0000
62.8100 99.0000 1.0000
62.8200 109.0000 1.0000
62.8300 98.0000 1.0000
62.8400 114.0000 1.0000
62.8500 95.0000 1.0000
62.8600 122.0000 1.0000
62.8700 116.0000 1.0000
62.8800 92.0000 1.0000
62.8900 95.0000 1.0000
62.9000 108.0000 1.0000
62.9100 103.0000 1.0000
62.9200 112.0000 1.0000
62.9300 98.0000 1.0000
62.9400 103.0000 1.0000
62.9500 93.0000 1.0000
62.9600 99.0000 1.0000
62.9700 112.0000 1.0000
62.9800 98.0000 1.0000
62.9900 99.0000 1.0000
63.0000 101.0000 1.0000
63.0100 115.0000 1.0000
63.0200 129.0000 1.0000
63.0300 91.0000 1.0000
63.0400 92.0000 1.0000
63.0500 102.0000 1.0000
63.0600 104.0000 1.0000
63.0700 112.0000 1.0000
63.0800 115.0000 1.0000
63.0900 114.0000 1.0000
63.1000 84.0000 1.0000
63.1100 117.0000 1.0000
63.1200 95.0000 1.0000
63.1300 121.0000 1.0000
63.1400 104.0000 1.0000
63.1500 95.0000 1.0000
63.1600 116.0000 1.0000
63.1700 96.0000 1.0000
63.1800 100.0000 1.0000
63.1900 89.0000 1.0000
63.2000 111.0000 1.0000
63.2100 95.0000 1.0000
63.2200 107.0000 1.0000
63.2300 110.0000 1.0000
63.2400 114.0000 1.0000
63.2500 121.0000 1.0000
63.2600 107.0000 1.0000
63.2700 113.0000 1.0000
63.2800 125.0000 1.0000
63.2900 91.0000 1.0000
63.3000 130.0000 1.0000
63.3100 118.0000 1.0000
63.3200 102.0000 1.0000
63.3300 97.0000 1.0000
63.3400 100.0000 1.0000
63.3500 110.0000 1.0000
63.3600 107.0000 1.0000
63.3700 117.0000 1.0000
63.3800 103.0000 1.0000
63.3900 99.0000 1.0000
63.4000 96.0000 1.0000
63.4100 129.0000 1.0000
63.4200 120.0000 1.0000
63.4300 101.0000 1.0000
63.4400 133.0000 1.0000
63.4500 96.0000 1.0000
63.4600 104.0000 1.0000
63.4700 111.0000 1.0000
63.4800 111.0000 1.0000
63.4900 111.0000 1.0000
63.5000 117.0000 1.0000
63.5100 110.0000 1.0000
63.5200 125.0000 1.0000
63.5300 116.0000 1.0000
63.5400 104.0000 1.0000
63.5500 112.0000 1.0000
63.5600 107.0000 1.0000
63.5700 105.0000 1.0000
63.5800 111.0000 1.0000
63.5900 113.0000 1.0000
63.6000 94.0000 1.0000
63.6100 105.0000 1.0000
63.6200 110.0000 1.0000
63.6300 102.0000 1.0000
63.6400 119.0000 1.0000
63.6500 94.0000 1.0000
63.6600 129.0000 1.0000
63.6700 95.0000 1.0000
63.6800 106.0000 1.0000
63.6900 118.0000 1.0000
63.7000 100.0000 1.0000
63.7100 109.0000 1.0000
63.7200 95.0000 1.0000
63.7300 112.0000 1.0000
63.7400 120.0000 1.0000
63.7500 97.0000 1.0000
63.7600 115.0000 1.0000
63.7700 84.0000 1.0000
63.7800 109.0000 1.0000
63.7900 107.0000 1.0000
63.8000 98.0000 1.0000
63.8100 114.0000 1.0000
63.8200 108.0000 1.0000
63.8300 92.0000 1.0000
63.8400 106.0000 1.0000
63.8500 99.0000 1.0000
63.8600 128.0000 1.0000
63.8700 124.0000 1.0000
63.8800 125.0000 1.0000
63.8900 116.0000 1.0000
63.9000 108.0000 1.0000
63.9100 106.0000 1.0000
63.9200 106.0000 1.0000
63.9300 109.0000 1.0000
63.9400 99.0000 1.0000
63.9500 97.0000 1.0000
63.9600 118.0000 1.0000
63.9700 113.0000 1.0000
63.9800 111.0000 1.0000
63.9900 111.0000 1.0000
64.0000 99.0000 1.0000
64.0100 118.0000 1.0000
64.0200 117.0000 1.0000
64.0300 112.0000 1.0000
64.0400 111.0000 1.0000
64.0500 102.0000 1.0000
64.0600 98.0000 1.0000
64.0700 106.0000 1.0000
64.0800 101.0000 1.0000
64.0900 110.0000 1.0000
64.1000 107.0000 1.0000
64.1100 118.0000 1.0000
64.1200 109.0000 1.0000
64.1300 113.0000 1.0000
64.1400 120.0000 1.0000
64.1500 97.0000 1.0000
64.1600 127.0000 1.0000
64.1700 105.0000 1.0000
64.1800 102.0000 1.0000
64.1900 113.0000 1.0000
64.2000 109.0000 1.0000
64.2100 106.0000 1.0000
64.2200 105.0000 1.0000
64.2300 114.0000 1.0000
64.2400 121.0000 1.0000
64.2500 92.0000 1.0000
64.2600 107.0000 1.0000
64.2700 135.0000 1.0000
64.2800 126.0000 1.0000
64.2900 133.0000 1.0000
64.3000 110.0000 1.0000
64.3100 114.0000 1.0000
64.3200 115.0000 1.0000
64.3300 118.0000 1.0000
64.3400 111.0000 1.0000
64.3500 130.0000 1.0000
64.3600 137.0000 1.0000
64.3700 123.0000 1.0000
64.3800 140.0000 1.0000
64.3900 142.0000 1.0000
64.4000 118.0000 1.0000
64.4100 145.0000 1.0000
64.4200 135.0000 1.0000
64.4300 121.0000 1.0000
64.4400 124.0000 1.0000
64.4500 130.0000 1.0000
64.4600 125.0000 1.0000
64.4700 117.0000 1.0000
64.4800 117.0000 1.0000
64.4900 135.0000 1.0000
64.5000 127.0000 1.0000
64.5100 131.0000 1.0000
64.5200 132.0000 1.0000
64.5300 130.0000 1.0000
64.5400 143.0000 1.0000
64.5500 150.0000 1.0000
64.5600 148.0000 1.0000
64.5700 144.0000 1.0000
64.5800 160.0000 1.0000
64.5900 153.0000 1.0000
64.6000 135.0000 1.0000
64.6100 169.0000 1.0000
64.6200 111.0000 1.0000
64.6300 133.0000 1.0000
64.6400 139.0000 1.0000
64.6500 137.0000 1.0000
64.6600 134.0000 1.0000
64.6700 152.0000 1.0000
64.6800 138.0000 1.0000
64.6900 124.0000 1.0000
64.7000 168.0000 1.0000
64.7100 162.0000 1.0000
64.7200 160.0000 1.0000
64.7300 161.0000 1.0000
64.7400 201.0000 1.0000
64.7500 204.0000 1.0000
64.7600 197.0000 1.0000
64.7700 213.0000 1.0000
64.7800 194.0000 1.0000
64.7900 176.0000 1.0000
64.8000 170.0000 1.0000
64.8100 162.0000 1.0000
64.8200 178.0000 1.0000
64.8300 188.0000 1.0000
64.8400 175.0000 1.0000
64.8500 193.0000 1.0000
64.8600 208.0000 1.0000
64.8700 239.0000 1.0000
64.8800 276.0000 1.0000
64.8900 288.0000 1.0000
64.9000 333.0000 1.0000
64.9100 398.0000 1.0000
64.9200 406.0000 1.0000
64.9300 471.0000 1.0000
64.9400 507.0000 1.0000
64.9500 501.0000 1.0000
64.9600 605.0000 1.0000
64.9700 564.0000 1.0000
64.9800 616.0000 1.0000
64.9900 552.0000 1.0000
65.0000 593.0000 1.0000
65.0100 565.0000 1.0000
65.0200 556.0000 1.0000
65.0300 530.0000 1.0000
65.0400 493.0000 1.0000
65.0500 449.0000 1.0000
65.0600 433.0000 1.0000
65.0700 354.0000 1.0000
65.0800 336.0000 1.0000
65.0900 309.0000 1.0000
65.1000 264.0000 1.0000
65.1100 255.0000 1.0000
65.1200 199.0000 1.0000
65.1300 225.0000 1.0000
65.1400 230.0000 1.0000
65.1500 148.0000 1.0000
65.1600 180.0000 1.0000
65.1700 170.0000 1.0000
65.1800 145.0000 1.0000
65.1900 155.0000 1.0000
65.2000 170.0000 1.0000
65.2100 149.0000 1.0000
65.2200 125.0000 1.0000
65.2300 137.0000 1.0000
65.2400 148.0000 1.0000
65.2500 132.0000 1.0000
65.2600 134.0000 1.0000
65.2700 105.0000 1.0000
65.2800 123.0000 1.0000
65.2900 121.0000 1.0000
65.3000 125.0000 1.0000
65.3100 115.0000 1.0000
65.3200 122.0000 1.0000
65.3300 130.0000 1.0000
65.3400 141.0000 1.0000
65.3500 124.0000 1.0000
65.3600 124.0000 1.0000
65.3700 135.0000 1.0000
65.3800 143.0000 1.0000
65.3900 116.0000 1.0000
65.4000 115.0000 1.0000
65.4100 119.0000 1.0000
65.4200 141.0000 1.0000
65.4300 118.0000 1.0000
65.4400 101.0000 1.0000
65.4500 121.0000 1.0000
65.4600 124.0000 1.0000
65.4700 114.0000 1.0000
65.4800 122.0000 1.0000
65.4900 110.0000 1.0000
65.5000 139.0000 1.0000
65.5100 118.0000 1.0000
65.5200 114.0000 1.0000
65.5300 125.0000 1.0000
65.5400 114.0000 1.0000
65.5500 119.0000 1.0000
65.5600 119.0000 1.0000
65.5700 115.0000 1.0000
65.5800 114.0000 1.0000
65.5900 133.0000 1.0000
65.6000 109.0000 1.0000
65.6100 111.0000 1.0000
65.6200 131.0000 1.0000
65.6300 122.0000 1.0000
65.6400 125.0000 1.0000
65.6500 107.0000 1.0000
65.6600 121.0000 1.0000
65.6700 131.0000 1.0000
65.6800 112.0000 1.0000
65.6900 122.0000 1.0000
65.7000 134.0000 1.0000
65.7100 141.0000 1.0000
65.7200 117.0000 1.0000
65.7300 121.0000 1.0000
65.7400 100.0000 1.0000
65.7500 129.0000 1.0000
65.7600 108.0000 1.0000
65.7700 128.0000 1.0000
65.7800 125.0000 1.0000
65.7900 122.0000 1.0000
65.8000 121.0000 1.0000
65.8100 119.0000 1.0000
65.8200 114.0000 1.0000
65.8300 113.0000 1.0000
65.8400 114.0000 1.0000
65.8500 104.0000 1.0000
65.8600 124.0000 1.0000
65.8700 126.0000 1.0000
65.8800 114.0000 1.0000
65.8900 112.0000 1.0000
65.9000 109.0000 1.0000
65.9100 114.0000 1.0000
65.9200 122.0000 1.0000
65.9300 114.0000 1.0000
65.9400 126.0000 1.0000
65.9500 134.0000 1.0000
65.9600 106.0000 1.0000
65.9700 108.0000 1.0000
65.9800 117.0000 1.0000
65.9900 92.0000 1.0000
66.0000 99.0000 1.0000
66.0100 88.0000 1.0000
66.0200 97.0000 1.0000
66.0300 127.0000 1.0000
66.0400 101.0000 1.0000
66.0500 101.0000 1.0000
66.0600 117.0000 1.0000
66.0700 133.0000 1.0000
66.0800 121.0000 1.0000
66.0900 125.0000 1.0000
66.1000 108.0000 1.0000
66.1100 137.0000 1.0000
66.1200 128.0000 1.0000
66.1300 108.0000 1.0000
66.1400 122.0000 1.0000
66.1500 103.0000 1.0000
66.1600 135.0000 1.0000
66.1700 121.0000 1.0000
66.1800 113.0000 1.0000
66.1900 130.0000 1.0000
66.2000 136.0000 1.0000
66.2100 114.0000 1.0000
66.2200 116.0000 1.0000
66.2300 100.0000 1.0000
66.2400 128.0000 1.0000
66.2500 123.0000 1.0000
66.2600 133.0000 1.0000
66.2700 118.0000 1.0000
66.2800 114.0000 1.0000
66.2900 118.0000 1.0000
66.3000 123.0000 1.0000
66.3100 129.0000 1.0000
66.3200 121.0000 1.0000
66.3300 120.0000 1.0000
66.3400 127.0000 1.0000
66.3500 121.0000 1.0000
66.3600 104.0000 1.0000
66.3700 113.0000 1.0000
66.3800 121.0000 1.0000
66.3900 123.0000 1.0000
66.4000 116.0000 1.0000
66.4100 131.0000 1.0000
66.4200 130.0000 1.0000
66.4300 114.0000 1.0000
66.4400 124.0000 1.0000
66.4500 149.0000 1.0000
66.4600 104.0000 1.0000
66.4700 134.0000 1.0000
66.4800 111.0000 1.0000
66.4900 122.0000 1.0000
66.5000 130.0000 1.0000
66.5100 111.0000 1.0000
66.5200 98.0000 1.0000
66.5300 111.0000 1.0000
66.5400 108.0000 1.0000
66.5500 109.0000 1.0000
66.5600 122.0000 1.0000
66.5700 140.0000 1.0000
66.5800 112.0000 1.0000
66.5900 112.0000 1.0000
66.6000 126.0000 1.0000
66.6100 120.0000 1.0000
66.6200 133.0000 1.0000
66.6300 108.0000 1.0000
66.6400 119.0000 1.0000
66.6500 125.0000 1.0000
66.6600 109.0000 1.0000
66.6700 104.0000 1.0000
66.6800 123.0000 1.0000
66.6900 116.0000 1.0000
66.7000 116.0000 1.0000
66.7100 120.0000 1.0000
66.7200 117.0000 1.0000
66.7300 140.0000 1.0000
66.7400 133.0000 1.0000
66.7500 107.0000 1.0000
66.7600 132.0000 1.0000
66.7700 140.0000 1.0000
66.7800 105.0000 1.0000
66.7900 121.0000 1.0000
66.8000 129.0000 1.0000
66.8100 112.0000 1.0000
66.8200 122.0000 1.0000
66.8300 109.0000 1.0000
66.8400 112.0000 1.0000
66.8500 133.0000 1.0000
66.8600 106.0000 1.0000
66.8700 108.0000 1.0000
66.8800 120.0000 1.0000
66.8900 107.0000 1.0000
66.9000 140.0000 1.0000
66.9100 125.0000 1.0000
66.9200 104.0000 1.0000
66.9300 97.0000 1.0000
66.9400 122.0000 1.0000
66.9500 133.0000 1.0000
66.9600 124.0000 1.0000
66.9700 128.0000 1.0000
66.9800 115.0000 1.0000
66.9900 107.0000 1.0000
67.0000 116.0000 1.0000
67.0100 116.0000 1.0000
67.0200 139.0000 1.0000
67.0300 128.0000 1.0000
67.0400 119.0000 1.0000
67.0500 123.0000 1.0000
67.0600 126.0000 1.0000
67.0700 109.0000 1.0000
67.0800 110.0000 1.0000
67.0900 110.0000 1.0000
67.1000 128.0000 1.0000
67.1100 131.0000 1.0000
67.1200 116.0000 1.0000
67.1300 124.0000 1.0000
67.1400 142.0000 1.0000
67.1500 122.0000 1.0000
67.1600 96.0000 1.0000
67.1700 103.0000 1.0000
67.1800 140.0000 1.0000
67.1900 137.0000 1.0000
67.2000 129.0000 1.0000
67.2100 126.0000 1.0000
67.2200 134.0000 1.0000
67.2300 145.0000 1.0000
67.2400 136.0000 1.0000
67.2500 137.0000 1.0000
67.2600 119.0000 1.0000
67.2700 105.0000 1.0000
67.2800 110.0000 1.0000
67.2900 135.0000 1.0000
67.3000 129.0000 1.0000
67.3100 128.0000 1.0000
67.3200 121.0000 1.0000
67.3300 116.0000 1.0000
67.3400 114.0000 1.0000
67.3500 120.0000 1.0000
67.3600 125.0000 1.0000
67.3700 126.0000 1.0000
67.3800 121.0000 1.0000
67.3900 122.0000 1.0000
67.4000 108.0000 1.0000
67.4100 110.0000 1.0000
67.4200 117.0000 1.0000
67.4300 120.0000 1.0000
67.4400 132.0000 1.0000
67.4500 109.0000 1.0000
67.4600 128.0000 1.0000
67.4700 131.0000 1.0000
67.4800 122.0000 1.0000
67.4900 121.0000 1.0000
67.5000 120.0000 1.0000
67.5100 129.0000 1.0000
67.5200 141.0000 1.0000
67.5300 120.0000 1.0000
67.5400 114.0000 1.0000
67.5500 115.0000 1.0000
67.5600 100.0000 1.0000
67.5700 122.0000 1.0000
67.5800 141.0000 1.0000
67.5900 118.0000 1.0000
67.6000 117.0000 1.0000
67.6100 126.0000 1.0000
67.6200 117.0000 1.0000
67.6300 122.0000 1.0000
67.6400 117.0000 1.0000
67.6500 131.0000 1.0000
67.6600 131.0000 1.0000
67.6700 126.0000 1.0000
67.6800 129.0000 1.0000
67.6900 142.0000 1.0000
67.7000 121.0000 1.0000
67.7100 113.0000 1.0000
67.7200 113.0000 1.0000
67.7300 117.0000 1.0000
67.7400 132.0000 1.0000
67.7500 135.0000 1.0000
67.7600 103.0000 1.0000
67.7700 118.0000 1.0000
67.7800 120.0000 1.0000
67.7900 130.0000 1.0000
67.8000 141.0000 1.0000
67.8100 134.0000 1.0000
67.8200 135.0000 1.0000
67.8300 153.0000 1.0000
67.8400 140.0000 1.0000
67.8500 144.0000 1.0000
67.8600 140.0000 1.0000
67.8700 149.0000 1.0000
67.8800 127.0000 1.0000
67.8900 141.0000 1.0000
67.9000 125.0000 1.0000
67.9100 134.0000 1.0000
67.9200 112.0000 1.0000
67.9300 117.0000 1.0000
67.9400 140.0000 1.0000
67.9500 153.0000 1.0000
67.9600 112.0000 1.0000
67.9700 129.0000 1.0000
67.9800 140.0000 1.0000
67.9900 134.0000 1.0000
68.0000 127.0000 1.0000
68.0100 115.0000 1.0000
68.0200 143.0000 1.0000
68.0300 116.0000 1.0000
68.0400 138.0000 1.0000
68.0500 121.0000 1.0000
68.0600 116.0000 1.0000
68.0700 137.0000 1.0000
68.0800 129.0000 1.0000
68.0900 145.0000 1.0000
68.1000 122.0000 1.0000
68.1100 142.0000 1.0000
68.1200 123.0000 1.0000
68.1300 134.0000 1.0000
68.1400 130.0000 1.0000
68.1500 133.0000 1.0000
68.1600 123.0000 1.0000
68.1700 125.0000 1.0000
68.1800 143.0000 1.0000
68.1900 131.0000 1.0000
68.2000 125.0000 1.0000
68.2100 148.0000 1.0000
68.2200 133.0000 1.0000
68.2300 126.0000 1.0000
68.2400 137.0000 1.0000
68.2500 124.0000 1.0000
68.2600 139.0000 1.0000
68.2700 135.0000 1.0000
68.2800 115.0000 1.0000
68.2900 135.0000 1.0000
68.3000 135.0000 1.0000
68.3100 139.0000 1.0000
68.3200 161.0000 1.0000
68.3300 124.0000 1.0000
68.3400 122.0000 1.0000
68.3500 143.0000 1.0000
68.3600 136.0000 1.0000
68.3700 135.0000 1.0000
68.3800 148.0000 1.0000
68.3900 139.0000 1.0000
68.4000 132.0000 1.0000
68.4100 135.0000 1.0000
68.4200 131.0000 1.0000
68.4300 127.0000 1.0000
68.4400 133.0000 1.0000
68.4500 149.0000 1.0000
68.4600 130.0000 1.0000
68.4700 142.0000 1.0000
68.4800 147.0000 1.0000
68.4900 135.0000 1.0000
68.5000 131.0000 1.0000
68.5100 134.0000 1.0000
68.5200 174.0000 1.0000
68.5300 145.0000 1.0000
68.5400 154.0000 1.0000
68.5500 140.0000 1.0000
68.5600 142.0000 1.0000
68.5700 138.0000 1.0000
68.5800 142.0000 1.0000
68.5900 137.0000 1.0000
68.6000 128.0000 1.0000
68.6100 135.0000 1.0000
68.6200 134.0000 1.0000
68.6300 133.0000 1.0000
68.6400 132.0000 1.0000
68.6500 151.0000 1.0000
68.6600 149.0000 1.0000
68.6700 141.0000 1.0000
68.6800 140.0000 1.0000
68.6900 170.0000 1.0000
68.7000 148.0000 1.0000
68.7100 150.0000 1.0000
68.7200 143.0000 1.0000
68.7300 148.0000 1.0000
68.7400 158.0000 1.0000
68.7500 141.0000 1.0000
68.7600 171.0000 1.0000
68.7700 152.0000 1.0000
68.7800 170.0000 1.0000
68.7900 158.0000 1.0000
68.8000 137.0000 1.0000
68.8100 127.0000 1.0000
68.8200 155.0000 1.0000
68.8300 161.0000 1.0000
68.8400 134.0000 1.0000
68.8500 173.0000 1.0000
68.8600 147.0000 1.0000
68.8700 151.0000 1.0000
68.8800 159.0000 1.0000
68.8900 149.0000 1.0000
68.9000 180.0000 1.0000
68.9100 178.0000 1.0000
68.9200 160.0000 1.0000
68.9300 140.0000 1.0000
68.9400 175.0000 1.0000
68.9500 181.0000 1.0000
68.9600 177.0000 1.0000
68.9700 147.0000 1.0000
68.9800 151.0000 1.0000
68.9900 151.0000 1.0000
69.0000 163.0000 1.0000
69.0100 155.0000 1.0000
69.0200 182.0000 1.0000
69.0300 154.0000 1.0000
69.0400 172.0000 1.0000
69.0500 185.0000 1.0000
69.0600 174.0000 1.0000
69.0700 194.0000 1.0000
69.0800 172.0000 1.0000
69.0900 193.0000 1.0000
69.1000 190.0000 1.0000
69.1100 202.0000 1.0000
69.1200 202.0000 1.0000
69.1300 177.0000 1.0000
69.1400 192.0000 1.0000
69.1500 182.0000 1.0000
69.1600 219.0000 1.0000
69.1700 214.0000 1.0000
69.1800 219.0000 1.0000
69.1900 235.0000 1.0000
69.2000 203.0000 1.0000
69.2100 209.0000 1.0000
69.2200 242.0000 1.0000
69.2300 263.0000 1.0000
69.2400 263.0000 1.0000
69.2500 296.0000 1.0000
69.2600 264.0000 1.0000
69.2700 342.0000 1.0000
69.2800 327.0000 1.0000
69.2900 401.0000 1.0000
69.3000 414.0000 1.0000
69.3100 449.0000 1.0000
69.3200 494.0000 1.0000
69.3300 550.0000 1.0000
69.3400 669.0000 1.0000
69.3500 690.0000 1.0000
69.3600 759.0000 1.0000
69.3700 848.0000 1.0000
69.3800 903.0000 1.0000
69.3900 970.0000 1.0000
69.4000 1059.0000 1.0000
69.4100 1107.0000 1.0000
69.4200 1148.0000 1.0000
69.4300 1188.0000 1.0000
69.4400 1216.0000 1.0000
69.4500 1130.0000 1.0000
69.4600 1131.0000 1.0000
69.4700 1118.0000 1.0000
69.4800 1019.0000 1.0000
69.4900 1031.0000 1.0000
69.5000 847.0000 1.0000
69.5100 806.0000 1.0000
69.5200 725.0000 1.0000
69.5300 691.0000 1.0000
69.5400 622.0000 1.0000
69.5500 600.0000 1.0000
69.5600 537.0000 1.0000
69.5700 472.0000 1.0000
69.5800 423.0000 1.0000
69.5900 388.0000 1.0000
69.6000 347.0000 1.0000
69.6100 366.0000 1.0000
69.6200 333.0000 1.0000
69.6300 306.0000 1.0000
69.6400 322.0000 1.0000
69.6500 260.0000 1.0000
69.6600 288.0000 1.0000
69.6700 245.0000 1.0000
69.6800 277.0000 1.0000
69.6900 253.0000 1.0000
69.7000 245.0000 1.0000
69.7100 255.0000 1.0000
69.7200 262.0000 1.0000
69.7300 249.0000 1.0000
69.7400 260.0000 1.0000
69.7500 248.0000 1.0000
69.7600 281.0000 1.0000
69.7700 238.0000 1.0000
69.7800 295.0000 1.0000
69.7900 246.0000 1.0000
69.8000 213.0000 1.0000
69.8100 240.0000 1.0000
69.8200 263.0000 1.0000
69.8300 231.0000 1.0000
69.8400 206.0000 1.0000
69.8500 263.0000 1.0000
69.8600 266.0000 1.0000
69.8700 247.0000 1.0000
69.8800 266.0000 1.0000
69.8900 276.0000 1.0000
69.9000 288.0000 1.0000
69.9100 269.0000 1.0000
69.9200 320.0000 1.0000
69.9300 281.0000 1.0000
69.9400 306.0000 1.0000
69.9500 330.0000 1.0000
69.9600 350.0000 1.0000
69.9700 351.0000 1.0000
69.9800 372.0000 1.0000
69.9900 379.0000 1.0000
70.0000 351.0000 1.0000
70.0100 411.0000 1.0000
70.0200 401.0000 1.0000
70.0300 393.0000 1.0000
70.0400 432.0000 1.0000
70.0500 405.0000 1.0000
70.0600 397.0000 1.0000
70.0700 365.0000 1.0000
70.0800 412.0000 1.0000
70.0900 377.0000 1.0000
70.1000 382.0000 1.0000
70.1100 372.0000 1.0000
70.1200 333.0000 1.0000
70.1300 318.0000 1.0000
70.1400 280.0000 1.0000
70.1500 299.0000 1.0000
70.1600 286.0000 1.0000
70.1700 292.0000 1.0000
70.1800 341.0000 1.0000
70.1900 285.0000 1.0000
70.2000 299.0000 1.0000
70.2100 262.0000 1.0000
70.2200 259.0000 1.0000
70.2300 253.0000 1.0000
70.2400 268.0000 1.0000
70.2500 264.0000 1.0000
70.2600 259.0000 1.0000
70.2700 281.0000 1.0000
70.2800 268.0000 1.0000
70.2900 259.0000 1.0000
70.3000 228.0000 1.0000
70.3100 250.0000 1.0000
70.3200 258.0000 1.0000
70.3300 234.0000 1.0000
70.3400 256.0000 1.0000
70.3500 223.0000 1.0000
70.3600 253.0000 1.0000
70.3700 253.0000 1.0000
70.3800 258.0000 1.0000
70.3900 257.0000 1.0000
70.4000 243.0000 1.0000
70.4100 219.0000 1.0000
70.4200 254.0000 1.0000
70.4300 297.0000 1.0000
70.4400 263.0000 1.0000
70.4500 259.0000 1.0000
70.4600 284.0000 1.0000
70.4700 258.0000 1.0000
70.4800 261.0000 1.0000
70.4900 286.0000 1.0000
70.5000 257.0000 1.0000
70.5100 297.0000 1.0000
70.5200 263.0000 1.0000
70.5300 289.0000 1.0000
70.5400 278.0000 1.0000
70.5500 259.0000 1.0000
70.5600 264.0000 1.0000
70.5700 254.0000 1.0000
70.5800 300.0000 1.0000
70.5900 255.0000 1.0000
70.6000 288.0000 1.0000
70.6100 254.0000 1.0000
70.6200 261.0000 1.0000
70.6300 295.0000 1.0000
70.6400 279.0000 1.0000
70.6500 278.0000 1.0000
70.6600 284.0000 1.0000
70.6700 263.0000 1.0000
70.6800 309.0000 1.0000
70.6900 266.0000 1.0000
70.7000 282.0000 1.0000
70.7100 288.0000 1.0000
70.7200 285.0000 1.0000
70.7300 282.0000 1.0000
70.7400 293.0000 1.0000
70.7500 271.0000 1.0000
70.7600 296.0000 1.0000
70.7700 268.0000 1.0000
70.7800 308.0000 1.0000
70.7900 317.0000 1.0000
70.8000 296.0000 1.0000
70.8100 261.0000 1.0000
70.8200 302.0000 1.0000
70.8300 305.0000 1.0000
70.8400 271.0000 1.0000
70.8500 295.0000 1.0000
70.8600 329.0000 1.0000
70.8700 307.0000 1.0000
70.8800 310.0000 1.0000
70.8900 306.0000 1.0000
70.9000 290.0000 1.0000
70.9100 336.0000 1.0000
70.9200 292.0000 1.0000
70.9300 328.0000 1.0000
70.9400 319.0000 1.0000
70.9500 297.0000 1.0000
70.9600 314.0000 1.0000
70.9700 305.0000 1.0000
70.9800 317.0000 1.0000
70.9900 334.0000 1.0000
71.0000 322.0000 1.0000
71.0100 294.0000 1.0000
71.0200 305.0000 1.0000
71.0300 326.0000 1.0000
71.0400 324.0000 1.0000
71.0500 307.0000 1.0000
71.0600 334.0000 1.0000
71.0700 307.0000 1.0000
71.0800 294.0000 1.0000
71.0900 305.0000 1.0000
71.1000 316.0000 1.0000
71.1100 318.0000 1.0000
71.1200 318.0000 1.0000
71.1300 298.0000 1.0000
71.1400 306.0000 1.0000
71.1500 317.0000 1.0000
71.1600 327.0000 1.0000
71.1700 349.0000 1.0000
71.1800 334.0000 1.0000
71.1900 316.0000 1.0000
71.2000 346.0000 1.0000
71.2100 332.0000 1.0000
71.2200 323.0000 1.0000
71.2300 324.0000 1.0000
71.2400 343.0000 1.0000
71.2500 337.0000 1.0000
71.2600 377.0000 1.0000
71.2700 337.0000 1.0000
71.2800 354.0000 1.0000
71.2900 335.0000 1.0000
71.3000 341.0000 1.0000
71.3100 341.0000 1.0000
71.3200 339.0000 1.0000
71.3300 325.0000 1.0000
71.3400 306.0000 1.0000
71.3500 398.0000 1.0000
71.3600 358.0000 1.0000
71.3700 352.0000 1.0000
71.3800 356.0000 1.0000
71.3900 384.0000 1.0000
71.4000 371.0000 1.0000
71.4100 331.0000 1.0000
71.4200 351.0000 1.0000
71.4300 352.0000 1.0000
71.4400 396.0000 1.0000
71.4500 358.0000 1.0000
71.4600 375.0000 1.0000
71.4700 393.0000 1.0000
71.4800 348.0000 1.0000
71.4900 343.0000 1.0000
71.5000 356.0000 1.0000
71.5100 382.0000 1.0000
71.5200 379.0000 1.0000
71.5300 342.0000 1.0000
71.5400 378.0000 1.0000
71.5500 399.0000 1.0000
71.5600 394.0000 1.0000
71.5700 384.0000 1.0000
71.5800 414.0000 1.0000
71.5900 402.0000 1.0000
71.6000 361.0000 1.0000
71.6100 392.0000 1.0000
71.6200 386.0000 1.0000
71.6300 407.0000 1.0000
71.6400 436.0000 1.0000
71.6500 377.0000 1.0000
71.6600 376.0000 1.0000
71.6700 371.0000 1.0000
71.6800 413.0000 1.0000
71.6900 435.0000 1.0000
71.7000 395.0000 1.0000
71.7100 442.0000 1.0000
71.7200 403.0000 1.0000
71.7300 419.0000 1.0000
71.7400 375.0000 1.0000
71.7500 399.0000 1.0000
71.7600 390.0000 1.0000
71.7700 429.0000 1.0000
71.7800 408.0000 1.0000
71.7900 438.0000 1.0000
71.8000 457.0000 1.0000
71.8100 434.0000 1.0000
71.8200 411.0000 1.0000
71.8300 425.0000 1.0000
71.8400 398.0000 1.0000
71.8500 435.0000 1.0000
71.8600 448.0000 1.0000
71.8700 430.0000 1.0000
71.8800 472.0000 1.0000
71.8900 436.0000 1.0000
71.9000 430.0000 1.0000
71.9100 416.0000 1.0000
71.9200 456.0000 1.0000
71.9300 455.0000 1.0000
71.9400 477.0000 1.0000
71.9500 437.0000 1.0000
71.9600 452.0000 1.0000
71.9700 446.0000 1.0000
71.9800 459.0000 1.0000
71.9900 478.0000 1.0000
72.0000 466.0000 1.0000
72.0100 484.0000 1.0000
72.0200 437.0000 1.0000
72.0300 516.0000 1.0000
72.0400 486.0000 1.0000
72.0500 468.0000 1.0000
72.0600 485.0000 1.0000
72.0700 499.0000 1.0000
72.0800 509.0000 1.0000
72.0900 495.0000 1.0000
72.1000 488.0000 1.0000
72.1100 493.0000 1.0000
72.1200 499.0000 1.0000
72.1300 502.0000 1.0000
72.1400 542.0000 1.0000
72.1500 541.0000 1.0000
72.1600 503.0000 1.0000
72.1700 547.0000 1.0000
72.1800 518.0000 1.0000
72.1900 532.0000 1.0000
72.2000 517.0000 1.0000
72.2100 593.0000 1.0000
72.2200 598.0000 1.0000
72.2300 548.0000 1.0000
72.2400 573.0000 1.0000
72.2500 624.0000 1.0000
72.2600 669.0000 1.0000
72.2700 599.0000 1.0000
72.2800 592.0000 1.0000
72.2900 628.0000 1.0000
72.3000 693.0000 1.0000
72.3100 615.0000 1.0000
72.3200 692.0000 1.0000
72.3300 679.0000 1.0000
72.3400 734.0000 1.0000
72.3500 721.0000 1.0000
72.3600 769.0000 1.0000
72.3700 718.0000 1.0000
72.3800 861.0000 1.0000
72.3900 797.0000 1.0000
72.4000 877.0000 1.0000
72.4100 894.0000 1.0000
72.4200 948.0000 1.0000
72.4300 950.0000 1.0000
72.4400 1028.0000 1.0000
72.4500 1100.0000 1.0000
72.4600 1177.0000 1.0000
72.4700 1240.0000 1.0000
72.4800 1322.0000 1.0000
72.4900 1427.0000 1.0000
72.5000 1517.0000 1.0000
72.5100 1652.0000 1.0000
72.5200 1727.0000 1.0000
72.5300 1899.0000 1.0000
72.5400 1943.0000 1.0000
72.5500 2052.0000 1.0000
72.5600 2099.0000 1.0000
72.5700 2298.0000 1.0000
72.5800 2294.0000 1.0000
72.5900 2397.0000 1.0000
72.6000 2435.0000 1.0000
72.6100 2512.0000 1.0000
72.6200 2657.0000 1.0000
72.6300 2598.0000 1.0000
72.6400 2635.0000 1.0000
72.6500 2749.0000 1.0000
72.6600 2749.0000 1.0000
72.6700 2856.0000 1.0000
72.6800 3013.0000 1.0000
72.6900 3104.0000 1.0000
72.7000 3255.0000 1.0000
72.7100 3521.0000 1.0000
72.7200 3929.0000 1.0000
72.7300 4481.0000 1.0000
72.7400 5055.0000 1.0000
72.7500 5815.0000 1.0000
72.7600 6822.0000 1.0000
72.7700 7990.0000 1.0000
72.7800 10149.0000 1.0000
72.7900 12310.0000 1.0000
72.8000 14796.0000 1.0000
72.8100 19027.0000 1.0000
72.8200 499.0000 46.6956
72.8300 636.0000 46.6956
72.8400 695.0000 46.6956
72.8500 938.0000 46.6956
72.8600 1073.0000 46.6956
72.8700 1368.0000 46.6956
72.8800 1620.0001 46.6956
72.8900 1902.0000 46.6956
72.9000 2219.0000 46.6956
72.9100 2529.0000 46.6956
72.9200 2876.0000 46.6956
72.9300 3063.9998 46.6956
72.9400 3123.0000 46.6956
72.9500 3251.0000 46.6956
72.9600 3028.0000 46.6956
72.9700 2970.0000 46.6956
72.9800 2721.0000 46.6956
72.9900 2453.0000 46.6956
73.0000 2139.0000 46.6956
73.0100 1949.0000 46.6956
73.0200 1608.0000 46.6956
73.0300 1419.0000 46.6956
73.0400 1303.0000 46.6956
73.0500 1166.0000 46.6956
73.0600 1052.0000 46.6956
73.0700 992.0000 46.6956
73.0800 999.0001 46.6956
73.0900 1081.0000 46.6956
73.1000 1117.0000 46.6956
73.1100 1233.0000 46.6956
73.1200 1313.0000 46.6956
73.1300 1372.0000 46.6956
73.1400 1438.0000 46.6956
73.1500 1509.0001 46.6956
73.1600 1468.0000 46.6956
73.1700 1465.0000 46.6956
73.1800 1433.0000 46.6956
73.1900 1300.0000 46.6956
73.2000 1186.0000 46.6956
73.2100 1039.0000 46.6956
73.2200 823.0001 46.6956
73.2300 776.0000 46.6956
73.2400 660.0000 46.6956
73.2500 550.0000 46.6956
73.2600 417.0000 46.6956
73.2700 317.0000 46.6956
73.2800 319.0000 46.6956
73.2900 11477.0000 1.0000
73.3000 9096.0000 1.0000
73.3100 7515.0000 1.0000
73.3200 6306.0000 1.0000
73.3300 5200.0000 1.0000
73.3400 4524.0000 1.0000
73.3500 4021.0000 1.0000
73.3600 3517.0000 1.0000
73.3700 3069.0000 1.0000
73.3800 2627.0000 1.0000
73.3900 2543.0000 1.0000
73.4000 2306.0000 1.0000
73.4100 2006.0000 1.0000
73.4200 1935.0000 1.0000
73.4300 1841.0000 1.0000
73.4400 1694.0000 1.0000
73.4500 1686.0000 1.0000
73.4600 1451.0000 1.0000
73.4700 1477.0000 1.0000
73.4800 1515.0000 1.0000
73.4900 1323.0000 1.0000
73.5000 1330.0000 1.0000
73.5100 1207.0000 1.0000
73.5200 1114.0000 1.0000
73.5300 1090.0000 1.0000
73.5400 1054.0000 1.0000
73.5500 979.0000 1.0000
73.5600 900.0000 1.0000
73.5700 996.0000 1.0000
73.5800 1001.0000 1.0000
73.5900 871.0000 1.0000
73.6000 895.0000 1.0000
73.6100 749.0000 1.0000
73.6200 858.0000 1.0000
73.6300 805.0000 1.0000
73.6400 798.0000 1.0000
73.6500 761.0000 1.0000
73.6600 764.0000 1.0000
73.6700 740.0000 1.0000
73.6800 734.0000 1.0000
73.6900 682.0000 1.0000
73.7000 666.0000 1.0000
73.7100 662.0000 1.0000
73.7200 640.0000 1.0000
73.7300 635.0000 1.0000
73.7400 582.0000 1.0000
73.7500 593.0000 1.0000
73.7600 574.0000 1.0000
73.7700 587.0000 1.0000
73.7800 557.0000 1.0000
73.7900 572.0000 1.0000
73.8000 536.0000 1.0000
73.8100 521.0000 1.0000
73.8200 568.0000 1.0000
73.8300 513.0000 1.0000
73.8400 490.0000 1.0000
73.8500 505.0000 1.0000
73.8600 475.0000 1.0000
73.8700 487.0000 1.0000
73.8800 479.0000 1.0000
73.8900 419.0000 1.0000
73.9000 474.0000 1.0000
73.9100 466.0000 1.0000
73.9200 459.0000 1.0000
73.9300 473.0000 1.0000
73.9400 424.0000 1.0000
73.9500 451.0000 1.0000
73.9600 460.0000 1.0000
73.9700 459.0000 1.0000
73.9800 431.0000 1.0000
73.9900 461.0000 1.0000
74.0000 410.0000 1.0000
74.0100 411.0000 1.0000
74.0200 422.0000 1.0000
74.0300 409.0000 1.0000
74.0400 408.0000 1.0000
74.0500 421.0000 1.0000
74.0600 428.0000 1.0000
74.0700 391.0000 1.0000
74.0800 398.0000 1.0000
74.0900 413.0000 1.0000
74.1000 372.0000 1.0000
74.1100 390.0000 1.0000
74.1200 373.0000 1.0000
74.1300 383.0000 1.0000
74.1400 433.0000 1.0000
74.1500 360.0000 1.0000
74.1600 351.0000 1.0000
74.1700 336.0000 1.0000
74.1800 380.0000 1.0000
74.1900 336.0000 1.0000
74.2000 336.0000 1.0000
74.2100 340.0000 1.0000
74.2200 345.0000 1.0000
74.2300 343.0000 1.0000
74.2400 361.0000 1.0000
74.2500 283.0000 1.0000
74.2600 335.0000 1.0000
74.2700 346.0000 1.0000
74.2800 294.0000 1.0000
74.2900 331.0000 1.0000
74.3000 298.0000 1.0000
74.3100 308.0000 1.0000
74.3200 327.0000 1.0000
74.3300 310.0000 1.0000
74.3400 317.0000 1.0000
74.3500 316.0000 1.0000
74.3600 318.0000 1.0000
74.3700 294.0000 1.0000
74.3800 296.0000 1.0000
74.3900 300.0000 1.0000
74.4000 286.0000 1.0000
74.4100 299.0000 1.0000
74.4200 268.0000 1.0000
74.4300 289.0000 1.0000
74.4400 281.0000 1.0000
74.4500 259.0000 1.0000
74.4600 289.0000 1.0000
74.4700 273.0000 1.0000
74.4800 270.0000 1.0000
74.4900 272.0000 1.0000
74.5000 277.0000 1.0000
74.5100 287.0000 1.0000
74.5200 255.0000 1.0000
74.5300 260.0000 1.0000
74.5400 249.0000 1.0000
74.5500 260.0000 1.0000
74.5600 261.0000 1.0000
74.5700 254.0000 1.0000
74.5800 242.0000 1.0000
74.5900 272.0000 1.0000
74.6000 281.0000 1.0000
74.6100 265.0000 1.0000
74.6200 264.0000 1.0000
74.6300 236.0000 1.0000
74.6400 249.0000 1.0000
74.6500 265.0000 1.0000
74.6600 239.0000 1.0000
74.6700 229.0000 1.0000
74.6800 253.0000 1.0000
74.6900 242.0000 1.0000
74.7000 257.0000 1.0000
74.7100 255.0000 1.0000
74.7200 235.0000 1.0000
74.7300 247.0000 1.0000
74.7400 246.0000 1.0000
74.7500 241.0000 1.0000
74.7600 237.0000 1.0000
74.7700 223.0000 1.0000
74.7800 218.0000 1.0000
74.7900 253.0000 1.0000
74.8000 243.0000 1.0000
74.8100 200.0000 1.0000
74.8200 244.0000 1.0000
74.8300 227.0000 1.0000
74.8400 228.0000 1.0000
74.8500 218.0000 1.0000
74.8600 231.0000 1.0000
74.8700 215.0000 1.0000
74.8800 226.0000 1.0000
74.8900 235.0000 1.0000
74.9000 252.0000 1.0000
74.9100 245.0000 1.0000
74.9200 227.0000 1.0000
74.9300 231.0000 1.0000
74.9400 224.0000 1.0000
74.9500 235.0000 1.0000
74.9600 237.0000 1.0000
74.9700 246.0000 1.0000
74.9800 224.0000 1.0000
74.9900 244.0000 1.0000
75.0000 231.0000 1.0000
75.0100 234.0000 1.0000
75.0200 224.0000 1.0000
75.0300 202.0000 1.0000
75.0400 227.0000 1.0000
75.0500 252.0000 1.0000
75.0600 256.0000 1.0000
75.0700 261.0000 1.0000
75.0800 257.0000 1.0000
75.0900 245.0000 1.0000
75.1000 279.0000 1.0000
75.1100 257.0000 1.0000
75.1200 273.0000 1.0000
75.1300 263.0000 1.0000
75.1400 256.0000 1.0000
75.1500 243.0000 1.0000
75.1600 304.0000 1.0000
75.1700 329.0000 1.0000
75.1800 339.0000 1.0000
75.1900 318.0000 1.0000
75.2000 347.0000 1.0000
75.2100 339.0000 1.0000
75.2200 369.0000 1.0000
75.2300 385.0000 1.0000
75.2400 425.0000 1.0000
75.2500 487.0000 1.0000
75.2600 561.0000 1.0000
75.2700 574.0000 1.0000
75.2800 692.0000 1.0000
75.2900 768.0000 1.0000
75.3000 871.0000 1.0000
75.3100 957.0000 1.0000
75.3200 1048.0000 1.0000
75.3300 1135.0000 1.0000
75.3400 1235.0000 1.0000
75.3500 1224.0000 1.0000
75.3600 1289.0000 1.0000
75.3700 1339.0000 1.0000
75.3800 1346.0000 1.0000
75.3900 1401.0000 1.0000
75.4000 1436.0000 1.0000
75.4100 1550.0000 1.0000
75.4200 1592.0000 1.0000
75.4300 1581.0000 1.0000
75.4400 1695.0000 1.0000
75.4500 1822.0000 1.0000
75.4600 1903.0000 1.0000
75.4700 1980.0000 1.0000
75.4800 2073.0000 1.0000
75.4900 2075.0000 1.0000
75.5000 1917.0000 1.0000
75.5100 1876.0000 1.0000
75.5200 1860.0000 1.0000
75.5300 1844.0000 1.0000
75.5400 1784.0000 1.0000
75.5500 1783.0000 1.0000
75.5600 1675.0000 1.0000
75.5700 1562.0000 1.0000
75.5800 1370.0000 1.0000
75.5900 1264.0000 1.0000
75.6000 1191.0000 1.0000
75.6100 1118.0000 1.0000
75.6200 1041.0000 1.0000
75.6300 942.0000 1.0000
75.6400 966.0000 1.0000
75.6500 887.0000 1.0000
75.6600 962.0000 1.0000
75.6700 1048.0000 1.0000
75.6800 946.0000 1.0000
75.6900 971.0000 1.0000
75.7000 1001.0000 1.0000
75.7100 981.0000 1.0000
75.7200 895.0000 1.0000
75.7300 859.0000 1.0000
75.7400 916.0000 1.0000
75.7500 852.0000 1.0000
75.7600 775.0000 1.0000
75.7700 747.0000 1.0000
75.7800 661.0000 1.0000
75.7900 603.0000 1.0000
75.8000 534.0000 1.0000
75.8100 427.0000 1.0000
75.8200 422.0000 1.0000
75.8300 354.0000 1.0000
75.8400 295.0000 1.0000
75.8500 242.0000 1.0000
75.8600 268.0000 1.0000
75.8700 238.0000 1.0000
75.8800 201.0000 1.0000
75.8900 206.0000 1.0000
75.9000 205.0000 1.0000
75.9100 204.0000 1.0000
75.9200 226.0000 1.0000
75.9300 197.0000 1.0000
75.9400 171.0000 1.0000
75.9500 172.0000 1.0000
75.9600 183.0000 1.0000
75.9700 188.0000 1.0000
75.9800 174.0000 1.0000
75.9900 182.0000 1.0000
76.0000 163.0000 1.0000
76.0100 188.0000 1.0000
76.0200 189.0000 1.0000
76.0300 174.0000 1.0000
76.0400 155.0000 1.0000
76.0500 190.0000 1.0000
76.0600 162.0000 1.0000
76.0700 191.0000 1.0000
76.0800 151.0000 1.0000
76.0900 154.0000 1.0000
76.1000 159.0000 1.0000
76.1100 162.0000 1.0000
76.1200 147.0000 1.0000
76.1300 153.0000 1.0000
76.1400 154.0000 1.0000
76.1500 146.0000 1.0000
76.1600 168.0000 1.0000
76.1700 149.0000 1.0000
76.1800 138.0000 1.0000
76.1900 131.0000 1.0000
76.2000 142.0000 1.0000
76.2100 171.0000 1.0000
76.2200 157.0000 1.0000
76.2300 159.0000 1.0000
76.2400 157.0000 1.0000
76.2500 162.0000 1.0000
76.2600 144.0000 1.0000
76.2700 155.0000 1.0000
76.2800 129.0000 1.0000
76.2900 150.0000 1.0000
76.3000 160.0000 1.0000
76.3100 136.0000 1.0000
76.3200 145.0000 1.0000
76.3300 133.0000 1.0000
76.3400 137.0000 1.0000
76.3500 156.0000 1.0000
76.3600 152.0000 1.0000
76.3700 147.0000 1.0000
76.3800 154.0000 1.0000
76.3900 157.0000 1.0000
76.4000 122.0000 1.0000
76.4100 131.0000 1.0000
76.4200 123.0000 1.0000
76.4300 146.0000 1.0000
76.4400 131.0000 1.0000
76.4500 145.0000 1.0000
76.4600 144.0000 1.0000
76.4700 135.0000 1.0000
76.4800 121.0000 1.0000
76.4900 139.0000 1.0000
76.5000 146.0000 1.0000
76.5100 130.0000 1.0000
76.5200 135.0000 1.0000
76.5300 115.0000 1.0000
76.5400 140.0000 1.0000
76.5500 128.0000 1.0000
76.5600 124.0000 1.0000
76.5700 113.0000 1.0000
76.5800 148.0000 1.0000
76.5900 138.0000 1.0000
76.6000 134.0000 1.0000
76.6100 151.0000 1.0000
76.6200 125.0000 1.0000
76.6300 136.0000 1.0000
76.6400 128.0000 1.0000
76.6500 127.0000 1.0000
76.6600 140.0000 1.0000
76.6700 130.0000 1.0000
76.6800 131.0000 1.0000
76.6900 124.0000 1.0000
76.7000 138.0000 1.0000
76.7100 147.0000 1.0000
76.7200 123.0000 1.0000
76.7300 139.0000 1.0000
76.7400 138.0000 1.0000
76.7500 116.0000 1.0000
76.7600 120.0000 1.0000
76.7700 124.0000 1.0000
76.7800 124.0000 1.0000
76.7900 138.0000 1.0000
76.8000 111.0000 1.0000
76.8100 134.0000 1.0000
76.8200 130.0000 1.0000
76.8300 112.0000 1.0000
76.8400 116.0000 1.0000
76.8500 132.0000 1.0000
76.8600 124.0000 1.0000
76.8700 138.0000 1.0000
76.8800 137.0000 1.0000
76.8900 130.0000 1.0000
76.9000 140.0000 1.0000
76.9100 122.0000 1.0000
76.9200 129.0000 1.0000
76.9300 132.0000 1.0000
76.9400 143.0000 1.0000
76.9500 116.0000 1.0000
76.9600 121.0000 1.0000
76.9700 138.0000 1.0000
76.9800 123.0000 1.0000
76.9900 146.0000 1.0000
77.0000 132.0000 1.0000
77.0100 119.0000 1.0000
77.0200 110.0000 1.0000
77.0300 127.0000 1.0000
77.0400 135.0000 1.0000
77.0500 136.0000 1.0000
77.0600 111.0000 1.0000
77.0700 111.0000 1.0000
77.0800 130.0000 1.0000
77.0900 128.0000 1.0000
77.1000 143.0000 1.0000
77.1100 124.0000 1.0000
77.1200 119.0000 1.0000
77.1300 128.0000 1.0000
77.1400 137.0000 1.0000
77.1500 129.0000 1.0000
77.1600 138.0000 1.0000
77.1700 154.0000 1.0000
77.1800 124.0000 1.0000
77.1900 99.0000 1.0000
77.2000 129.0000 1.0000
77.2100 112.0000 1.0000
77.2200 125.0000 1.0000
77.2300 126.0000 1.0000
77.2400 118.0000 1.0000
77.2500 144.0000 1.0000
77.2600 142.0000 1.0000
77.2700 127.0000 1.0000
77.2800 118.0000 1.0000
77.2900 140.0000 1.0000
77.3000 151.0000 1.0000
77.3100 112.0000 1.0000
77.3200 134.0000 1.0000
77.3300 120.0000 1.0000
77.3400 122.0000 1.0000
77.3500 111.0000 1.0000
77.3600 122.0000 1.0000
77.3700 134.0000 1.0000
77.3800 128.0000 1.0000
77.3900 114.0000 1.0000
77.4000 110.0000 1.0000
77.4100 124.0000 1.0000
77.4200 123.0000 1.0000
77.4300 135.0000 1.0000
77.4400 133.0000 1.0000
77.4500 119.0000 1.0000
77.4600 110.0000 1.0000
77.4700 114.0000 1.0000
77.4800 131.0000 1.0000
77.4900 147.0000 1.0000
77.5000 125.0000 1.0000
77.5100 109.0000 1.0000
77.5200 138.0000 1.0000
77.5300 121.0000 1.0000
77.5400 131.0000 1.0000
77.5500 126.0000 1.0000
77.5600 132.0000 1.0000
77.5700 116.0000 1.0000
77.5800 132.0000 1.0000
77.5900 134.0000 1.0000
77.6000 133.0000 1.0000
77.6100 149.0000 1.0000
77.6200 122.0000 1.0000
77.6300 131.0000 1.0000
77.6400 117.0000 1.0000
77.6500 133.0000 1.0000
77.6600 114.0000 1.0000
77.6700 133.0000 1.0000
77.6800 119.0000 1.0000
77.6900 132.0000 1.0000
77.7000 125.0000 1.0000
77.7100 128.0000 1.0000
77.7200 155.0000 1.0000
77.7300 118.0000 1.0000
77.7400 151.0000 1.0000
77.7500 135.0000 1.0000
77.7600 124.0000 1.0000
77.7700 100.0000 1.0000
77.7800 118.0000 1.0000
77.7900 118.0000 1.0000
77.8000 122.0000 1.0000
77.8100 123.0000 1.0000
77.8200 114.0000 1.0000
77.8300 125.0000 1.0000
77.8400 123.0000 1.0000
77.8500 122.0000 1.0000
77.8600 130.0000 1.0000
77.8700 146.0000 1.0000
77.8800 130.0000 1.0000
77.8900 126.0000 1.0000
77.9000 132.0000 1.0000
77.9100 114.0000 1.0000
77.9200 126.0000 1.0000
77.9300 109.0000 1.0000
77.9400 132.0000 1.0000
77.9500 113.0000 1.0000
77.9600 110.0000 1.0000
77.9700 131.0000 1.0000
77.9800 129.0000 1.0000
77.9900 131.0000 1.0000
78.0000 116.0000 1.0000
78.0100 106.0000 1.0000
78.0200 99.0000 1.0000
78.0300 111.0000 1.0000
78.0400 127.0000 1.0000
78.0500 113.0000 1.0000
78.0600 142.0000 1.0000
78.0700 127.0000 1.0000
78.0800 102.0000 1.0000
78.0900 129.0000 1.0000
78.1000 130.0000 1.0000
78.1100 117.0000 1.0000
78.1200 122.0000 1.0000
78.1300 107.0000 1.0000
78.1400 126.0000 1.0000
78.1500 125.0000 1.0000
78.1600 116.0000 1.0000
78.1700 131.0000 1.0000
78.1800 102.0000 1.0000
78.1900 118.0000 1.0000
78.2000 121.0000 1.0000
78.2100 130.0000 1.0000
78.2200 107.0000 1.0000
78.2300 130.0000 1.0000
78.2400 127.0000 1.0000
78.2500 119.0000 1.0000
78.2600 123.0000 1.0000
78.2700 125.0000 1.0000
78.2800 128.0000 1.0000
78.2900 142.0000 1.0000
78.3000 112.0000 1.0000
78.3100 130.0000 1.0000
78.3200 107.0000 1.0000
78.3300 119.0000 1.0000
78.3400 123.0000 1.0000
78.3500 111.0000 1.0000
78.3600 139.0000 1.0000
78.3700 129.0000 1.0000
78.3800 132.0000 1.0000
78.3900 105.0000 1.0000
78.4000 135.0000 1.0000
78.4100 117.0000 1.0000
78.4200 125.0000 1.0000
78.4300 128.0000 1.0000
78.4400 130.0000 1.0000
78.4500 111.0000 1.0000
78.4600 132.0000 1.0000
78.4700 103.0000 1.0000
78.4800 104.0000 1.0000
78.4900 116.0000 1.0000
78.5000 93.0000 1.0000
78.5100 117.0000 1.0000
78.5200 114.0000 1.0000
78.5300 111.0000 1.0000
78.5400 117.0000 1.0000
78.5500 127.0000 1.0000
78.5600 109.0000 1.0000
78.5700 105.0000 1.0000
78.5800 132.0000 1.0000
78.5900 137.0000 1.0000
78.6000 128.0000 1.0000
78.6100 122.0000 1.0000
78.6200 125.0000 1.0000
78.6300 138.0000 1.0000
78.6400 108.0000 1.0000
78.6500 126.0000 1.0000
78.6600 110.0000 1.0000
78.6700 98.0000 1.0000
78.6800 138.0000 1.0000
78.6900 135.0000 1.0000
78.7000 114.0000 1.0000
78.7100 96.0000 1.0000
78.7200 119.0000 1.0000
78.7300 115.0000 1.0000
78.7400 119.0000 1.0000
78.7500 97.0000 1.0000
78.7600 105.0000 1.0000
78.7700 123.0000 1.0000
78.7800 124.0000 1.0000
78.7900 117.0000 1.0000
78.8000 104.0000 1.0000
78.8100 102.0000 1.0000
78.8200 116.0000 1.0000
78.8300 126.0000 1.0000
78.8400 121.0000 1.0000
78.8500 89.0000 1.0000
78.8600 107.0000 1.0000
78.8700 116.0000 1.0000
78.8800 108.0000 1.0000
78.8900 122.0000 1.0000
78.9000 121.0000 1.0000
78.9100 105.0000 1.0000
78.9200 123.0000 1.0000
78.9300 104.0000 1.0000
78.9400 120.0000 1.0000
78.9500 123.0000 1.0000
78.9600 105.0000 1.0000
78.9700 115.0000 1.0000
78.9800 125.0000 1.0000
78.9900 122.0000 1.0000
79.0000 111.0000 1.0000
79.0100 115.0000 1.0000
79.0200 128.0000 1.0000
79.0300 116.0000 1.0000
79.0400 99.0000 1.0000
79.0500 102.0000 1.0000
79.0600 120.0000 1.0000
79.0700 138.0000 1.0000
79.0800 119.0000 1.0000
79.0900 105.0000 1.0000
79.1000 123.0000 1.0000
79.1100 138.0000 1.0000
79.1200 111.0000 1.0000
79.1300 119.0000 1.0000
79.1400 106.0000 1.0000
79.1500 110.0000 1.0000
79.1600 119.0000 1.0000
79.1700 112.0000 1.0000
79.1800 121.0000 1.0000
79.1900 116.0000 1.0000
79.2000 120.0000 1.0000
79.2100 101.0000 1.0000
79.2200 122.0000 1.0000
79.2300 108.0000 1.0000
79.2400 107.0000 1.0000
79.2500 121.0000 1.0000
79.2600 93.0000 1.0000
79.2700 119.0000 1.0000
79.2800 116.0000 1.0000
79.2900 128.0000 1.0000
79.3000 133.0000 1.0000
79.3100 139.0000 1.0000
79.3200 107.0000 1.0000
79.3300 136.0000 1.0000
79.3400 124.0000 1.0000
79.3500 126.0000 1.0000
79.3600 129.0000 1.0000
79.3700 124.0000 1.0000
79.3800 137.0000 1.0000
79.3900 112.0000 1.0000
79.4000 121.0000 1.0000
79.4100 112.0000 1.0000
79.4200 136.0000 1.0000
79.4300 121.0000 1.0000
79.4400 105.0000 1.0000
79.4500 117.0000 1.0000
79.4600 132.0000 1.0000
79.4700 118.0000 1.0000
79.4800 119.0000 1.0000
79.4900 136.0000 1.0000
79.5000 132.0000 1.0000
79.5100 118.0000 1.0000
79.5200 137.0000 1.0000
79.5300 126.0000 1.0000
79.5400 110.0000 1.0000
79.5500 125.0000 1.0000
79.5600 112.0000 1.0000
79.5700 130.0000 1.0000
79.5800 112.0000 1.0000
79.5900 124.0000 1.0000
79.6000 127.0000 1.0000
79.6100 116.0000 1.0000
79.6200 104.0000 1.0000
79.6300 120.0000 1.0000
79.6400 108.0000 1.0000
79.6500 127.0000 1.0000
79.6600 102.0000 1.0000
79.6700 145.0000 1.0000
79.6800 102.0000 1.0000
79.6900 136.0000 1.0000
79.7000 127.0000 1.0000
79.7100 113.0000 1.0000
79.7200 118.0000 1.0000
79.7300 122.0000 1.0000
79.7400 122.0000 1.0000
79.7500 119.0000 1.0000
79.7600 128.0000 1.0000
79.7700 116.0000 1.0000
79.7800 119.0000 1.0000
79.7900 102.0000 1.0000
79.8000 126.0000 1.0000
79.8100 137.0000 1.0000
79.8200 110.0000 1.0000
79.8300 136.0000 1.0000
79.8400 139.0000 1.0000
79.8500 120.0000 1.0000
79.8600 131.0000 1.0000
79.8700 131.0000 1.0000
79.8800 144.0000 1.0000
79.8900 126.0000 1.0000
79.9000 122.0000 1.0000
79.9100 120.0000 1.0000
79.9200 126.0000 1.0000
79.9300 151.0000 1.0000
79.9400 178.0000 1.0000
79.9500 184.0000 1.0000
79.9600 172.0000 1.0000
79.9700 171.0000 1.0000
79.9800 206.0000 1.0000
79.9900 215.0000 1.0000
80.0000 260.0000 1.0000
*RAS_INT_END
*RAS_DATA_END
