*RAS_DATA_START
*RAS_HEADER_START
*DISP_FMT_X "%.2f"
*DISP_FMT_Y "%.0f"
*DISP_FULLSCALE "49728.0000000000"
*DISP_LINE_COLOR "255.0000000000"
*DISP_LINE_STYLE "0.0000000000"
*DISP_LINE_WIDTH "0.2500000000"
*DISP_NOTE "Collected Data-121"
*DISP_OFFSET_Y "0.0000000000"
*DISP_PEAKSEARCH_UNIT_Y "cps"
*DISP_RANGE_BOTTOM "0.0000000000"
*DISP_RANGE_LEFT "20.0000000000"
*DISP_RANGE_LOGCUTOFF "0.0100000000"
*DISP_RANGE_RIGHT "80.0000000000"
*DISP_RANGE_TOP "49728.0000000000"
*DISP_SCALE_MODE_Y "0.0000000000"
*DISP_TAB_NAME "2-Theta/Omega"
*DISP_TITLE_Y "Intensity"
*DISP_UNIT_Y "cps"
*DISP_WINDOW_NAME "MSG_MACROENGINE"
*FILE_COMMENT " "
*FILE_MD5 ""
*FILE_MEMO " "
*FILE_OPERATOR "dell"
*FILE_PART_ID "MEAS_KHP2_00061"
*FILE_SAMPLE " "
*FILE_TYPE "RAS_RAW"
*FILE_USERGROUP "System Manager"
*FILE_VERSION "1.0000000000"
*HW_ATTACHMENT_ID "ATT0022"
*HW_ATTACHMENT_NAME "RxRy|RxRy"
*HW_COUNTER_ID-0 "CUT0021"
*HW_COUNTER_ID-1 "CUT0020"
*HW_COUNTER_ID-2 ""
*HW_COUNTER_ID-3 "CSL0021"
*HW_COUNTER_ID-4 "CMC0021"
*HW_COUNTER_NAME-0 "SC-70|SC-70"
*HW_COUNTER_NAME-1 "None|None"
*HW_COUNTER_NAME-2 ""
*HW_COUNTER_NAME-3 "BBM|BBM"
*HW_COUNTER_NAME-4 "検出器モノクロメータ|Detector monochromator"
*HW_COUNTER_SELECT_NAME "SC-70|SC-70"
*HW_ECP_HV "671.0000000000"
*HW_ECP_HV_UNIT "V"
*HW_GONIOMETER_ID "GON0024"
*HW_GONIOMETER_NAME "SmartLab(In-plane)|SmartLab(In-plane)"
*HW_GONIOMETER_RADIUS-0 "90.0"
*HW_GONIOMETER_RADIUS-1 "114.0"
*HW_GONIOMETER_RADIUS-2 "190.0"
*HW_GONIOMETER_RADIUS-3 "300.0"
*HW_GONIOMETER_RADIUS-4 "187.0"
*HW_GONIOMETER_RADIUS-5 "300.0"
*HW_GONIOMETER_RADIUS-6 "113.0"
*HW_GONIOMETER_RADIUS-7 "331.0"
*HW_I_OPT_ID-0 "CBO0021"
*HW_I_OPT_ID-1 "ICR0023"
*HW_I_OPT_ID-2 "ISL0021"
*HW_I_OPT_ID-3 "ISO0021"
*HW_I_OPT_ID-4 "IAD0021"
*HW_I_OPT_ID-5 "IPR0001"
*HW_I_OPT_NAME-0 "CBOユニット|CBO unit"
*HW_I_OPT_NAME-1 "標準入射光学ユニット|Standard incident optical unit"
*HW_I_OPT_NAME-2 "標準入射スリットボックス|Standard incident slit box"
*HW_I_OPT_NAME-3 "入射平行スリット|Incident parallel slit"
*HW_I_OPT_NAME-4 "長手制限スリット|Length limiting slit"
*HW_I_OPT_NAME-5 "None|None"
*HW_R_ATTENUATER_AUTOMODE "1"
*HW_R_OPT_ID-0 "RSS0021"
*HW_R_OPT_ID-1 "RCR0022"
*HW_R_OPT_ID-2 "RSO0021"
*HW_R_OPT_ID-3 "RRS0021"
*HW_R_OPT_ID-4 "ATN0021"
*HW_R_OPT_ID-5 "RFL0021"
*HW_R_OPT_ID-6 "RAD0021"
*HW_R_OPT_NAME-0 "標準受光スリットボックス1|Standard receiving slit box # 1"
*HW_R_OPT_NAME-1 "標準受光光学ユニット1|Standard receiving unit # 1"
*HW_R_OPT_NAME-2 "標準受光光学ユニット2|Standard receiving optical unit # 2"
*HW_R_OPT_NAME-3 "標準受光スリットボックス2|Standard receiving slit box # 2"
*HW_R_OPT_NAME-4 "標準アッテネータ|Standard Attenuator"
*HW_R_OPT_NAME-5 "Cu Kβ|Cu K-beta"
*HW_R_OPT_NAME-6 "調整用受光スリット|Alignment receiving slit"
*HW_SAMPLE_HOLDER_ID "SMP0026"
*HW_SAMPLE_HOLDER_NAME "Z-φステージ|Z-Phi Stage"
*HW_XG_CURRENT_MAX "200"
*HW_XG_CURRENT_MIN "10"
*HW_XG_CURRENT_RESOLUTION "2"
*HW_XG_CURRENT_UNIT "mA"
*HW_XG_FOCUS ""
*HW_XG_FOCUS_TYPE "Normal"
*HW_XG_ID ""
*HW_XG_NAME "9kW 開放管(45kV 200mA ID:1700)|9kW Rotating anode(45kV 200mA ID:1700)"
*HW_XG_TARGET_ATOMIC_NUMBER "29.0000000000"
*HW_XG_TARGET_NAME "Cu"
*HW_XG_TYPE "Rota"
*HW_XG_VOLTAGE_MAX "45"
*HW_XG_VOLTAGE_MIN "20"
*HW_XG_VOLTAGE_RESOLUTION "2"
*HW_XG_VOLTAGE_UNIT "kV"
*HW_XG_WATT_MAX "9"
*HW_XG_WATT_UNIT "kW"
*HW_XG_WAVE_LENGTH_ALPHA1 "1.540593"
*HW_XG_WAVE_LENGTH_ALPHA2 "1.544414"
*HW_XG_WAVE_LENGTH_BETA "1.392250"
*MEAS_COND_AXIS_NAME-0 "Theta/2-Theta"
*MEAS_COND_AXIS_NAME-1 "2-Theta"
*MEAS_COND_AXIS_NAME-2 "Omega"
*MEAS_COND_AXIS_NAME-3 "Phi"
*MEAS_COND_AXIS_NAME-4 "Z"
*MEAS_COND_AXIS_NAME-5 "Rx"
*MEAS_COND_AXIS_NAME-6 "Ry"
*MEAS_COND_AXIS_NAME-7 "2-Theta/Omega"
*MEAS_COND_AXIS_NAME-8 "2-ThetaChi"
*MEAS_COND_AXIS_NAME-9 "2-ThetaChi/Phi"
*MEAS_COND_AXIS_NAME-10 "Alpha"
*MEAS_COND_AXIS_NAME-11 "Beta"
*MEAS_COND_AXIS_NAME-12 "Theta_s"
*MEAS_COND_AXIS_NAME-13 "Theta_d"
*MEAS_COND_AXIS_NAME-14 "Ts"
*MEAS_COND_AXIS_NAME-15 "CBO selection slit"
*MEAS_COND_AXIS_NAME-16 "M"
*MEAS_COND_AXIS_NAME-17 "Incident parallel slit"
*MEAS_COND_AXIS_NAME-18 "Incident slit"
*MEAS_COND_AXIS_NAME-19 ""
*MEAS_COND_AXIS_NAME-20 "Zs"
*MEAS_COND_AXIS_NAME-21 "Incident monochromator"
*MEAS_COND_AXIS_NAME-22 "Length limiting slit"
*MEAS_COND_AXIS_NAME-23 "Center slit"
*MEAS_COND_AXIS_NAME-24 "Filter"
*MEAS_COND_AXIS_NAME-25 "Receiving slit # 1"
*MEAS_COND_AXIS_NAME-26 "Receiving slit # 2"
*MEAS_COND_AXIS_NAME-27 "Receiving optical device"
*MEAS_COND_AXIS_NAME-28 "Receiving parallel slit"
*MEAS_COND_AXIS_NAME-29 "Alignment receiving slit"
*MEAS_COND_AXIS_NAME-30 ""
*MEAS_COND_AXIS_NAME-31 ""
*MEAS_COND_AXIS_NAME-32 "Zd"
*MEAS_COND_AXIS_NAME-33 "Attenuator"
*MEAS_COND_AXIS_NAME-34 "Diffracted beam monochromator"
*MEAS_COND_AXIS_NAME-35 "Monochromator slit"
*MEAS_COND_AXIS_NAME-36 "2-ThetaB"
*MEAS_COND_AXIS_NAME-37 "Primary beam"
*MEAS_COND_AXIS_NAME-38 "HV"
*MEAS_COND_AXIS_NAME-39 "PHA"
*MEAS_COND_AXIS_NAME_INTERNAL-0 "TwoThetaTheta"
*MEAS_COND_AXIS_NAME_INTERNAL-1 "TwoTheta"
*MEAS_COND_AXIS_NAME_INTERNAL-2 "Omega"
*MEAS_COND_AXIS_NAME_INTERNAL-3 "Phi"
*MEAS_COND_AXIS_NAME_INTERNAL-4 "Z"
*MEAS_COND_AXIS_NAME_INTERNAL-5 "Rx"
*MEAS_COND_AXIS_NAME_INTERNAL-6 "Ry"
*MEAS_COND_AXIS_NAME_INTERNAL-7 "TwoThetaOmega"
*MEAS_COND_AXIS_NAME_INTERNAL-8 "TwoThetaChi"
*MEAS_COND_AXIS_NAME_INTERNAL-9 "TwoThetaChiPhi"
*MEAS_COND_AXIS_NAME_INTERNAL-10 "Alpha"
*MEAS_COND_AXIS_NAME_INTERNAL-11 "Beta"
*MEAS_COND_AXIS_NAME_INTERNAL-12 "ThetaS"
*MEAS_COND_AXIS_NAME_INTERNAL-13 "ThetaD"
*MEAS_COND_AXIS_NAME_INTERNAL-14 "Ts"
*MEAS_COND_AXIS_NAME_INTERNAL-15 "CBO"
*MEAS_COND_AXIS_NAME_INTERNAL-16 "CBO-M"
*MEAS_COND_AXIS_NAME_INTERNAL-17 "IncidentSollerSlit"
*MEAS_COND_AXIS_NAME_INTERNAL-18 "IncidentSlitBox"
*MEAS_COND_AXIS_NAME_INTERNAL-19 "IncidentSlitBox-_Axis"
*MEAS_COND_AXIS_NAME_INTERNAL-20 "Zs"
*MEAS_COND_AXIS_NAME_INTERNAL-21 "IncidentMonochromator"
*MEAS_COND_AXIS_NAME_INTERNAL-22 "IncidentAxdSlit"
*MEAS_COND_AXIS_NAME_INTERNAL-23 "CenterSlit"
*MEAS_COND_AXIS_NAME_INTERNAL-24 "Filter"
*MEAS_COND_AXIS_NAME_INTERNAL-25 "ReceivingSlitBox1"
*MEAS_COND_AXIS_NAME_INTERNAL-26 "ReceivingSlitBox2"
*MEAS_COND_AXIS_NAME_INTERNAL-27 "ReceivingOptics"
*MEAS_COND_AXIS_NAME_INTERNAL-28 "ReceivingSollerSlit"
*MEAS_COND_AXIS_NAME_INTERNAL-29 "ReceivingAxdSlit"
*MEAS_COND_AXIS_NAME_INTERNAL-30 "ReceivingSlitBox1-_Axis"
*MEAS_COND_AXIS_NAME_INTERNAL-31 "ReceivingSlitBox2-_Axis"
*MEAS_COND_AXIS_NAME_INTERNAL-32 "ReceivingSlitBox2-Zd"
*MEAS_COND_AXIS_NAME_INTERNAL-33 "Attenuator"
*MEAS_COND_AXIS_NAME_INTERNAL-34 "CounterMonochromator"
*MEAS_COND_AXIS_NAME_INTERNAL-35 "CounterSlit"
*MEAS_COND_AXIS_NAME_INTERNAL-36 "TwoThetaB"
*MEAS_COND_AXIS_NAME_INTERNAL-37 "IncidentPrimary"
*MEAS_COND_AXIS_NAME_INTERNAL-38 "HV"
*MEAS_COND_AXIS_NAME_INTERNAL-39 "PHA"
*MEAS_COND_AXIS_NAME_MAGICNO-0 "83951616.0000000000"
*MEAS_COND_AXIS_NAME_MAGICNO-1 "268632064.0000000000"
*MEAS_COND_AXIS_NAME_MAGICNO-2 "268500992.0000000000"
*MEAS_COND_AXIS_NAME_MAGICNO-3 "268500992.0000000000"
*MEAS_COND_AXIS_NAME_MAGICNO-4 "285278208.0000000000"
*MEAS_COND_AXIS_NAME_MAGICNO-5 "285278208.0000000000"
*MEAS_COND_AXIS_NAME_MAGICNO-6 "285278208.0000000000"
*MEAS_COND_AXIS_NAME_MAGICNO-7 "83951616.0000000000"
*MEAS_COND_AXIS_NAME_MAGICNO-8 "268632064.0000000000"
*MEAS_COND_AXIS_NAME_MAGICNO-9 "83951616.0000000000"
*MEAS_COND_AXIS_NAME_MAGICNO-10 "17039360.0000000000"
*MEAS_COND_AXIS_NAME_MAGICNO-11 "17039360.0000000000"
*MEAS_COND_AXIS_NAME_MAGICNO-12 "131072.0000000000"
*MEAS_COND_AXIS_NAME_MAGICNO-13 "131072.0000000000"
*MEAS_COND_AXIS_NAME_MAGICNO-14 "318898176.0000000000"
*MEAS_COND_AXIS_NAME_MAGICNO-15 "20971521.0000000000"
*MEAS_COND_AXIS_NAME_MAGICNO-16 "285343744.0000000000"
*MEAS_COND_AXIS_NAME_MAGICNO-17 "20971521.0000000000"
*MEAS_COND_AXIS_NAME_MAGICNO-18 "22020097.0000000000"
*MEAS_COND_AXIS_NAME_MAGICNO-19 "25165824.0000000000"
*MEAS_COND_AXIS_NAME_MAGICNO-20 "318898176.0000000000"
*MEAS_COND_AXIS_NAME_MAGICNO-21 "1.0000000000"
*MEAS_COND_AXIS_NAME_MAGICNO-22 "20971521.0000000000"
*MEAS_COND_AXIS_NAME_MAGICNO-23 "20971521.0000000000"
*MEAS_COND_AXIS_NAME_MAGICNO-24 "20971521.0000000000"
*MEAS_COND_AXIS_NAME_MAGICNO-25 "23068673.0000000000"
*MEAS_COND_AXIS_NAME_MAGICNO-26 "23068673.0000000000"
*MEAS_COND_AXIS_NAME_MAGICNO-27 "20971521.0000000000"
*MEAS_COND_AXIS_NAME_MAGICNO-28 "20971521.0000000000"
*MEAS_COND_AXIS_NAME_MAGICNO-29 "20971521.0000000000"
*MEAS_COND_AXIS_NAME_MAGICNO-30 "25165824.0000000000"
*MEAS_COND_AXIS_NAME_MAGICNO-31 "25165824.0000000000"
*MEAS_COND_AXIS_NAME_MAGICNO-32 "285343744.0000000000"
*MEAS_COND_AXIS_NAME_MAGICNO-33 "17301505.0000000000"
*MEAS_COND_AXIS_NAME_MAGICNO-34 "20971521.0000000000"
*MEAS_COND_AXIS_NAME_MAGICNO-35 "20971521.0000000000"
*MEAS_COND_AXIS_NAME_MAGICNO-36 "17039360.0000000000"
*MEAS_COND_AXIS_NAME_MAGICNO-37 "20971521.0000000000"
*MEAS_COND_AXIS_NAME_MAGICNO-38 "0.0000000000"
*MEAS_COND_AXIS_NAME_MAGICNO-39 "0.0000000000"
*MEAS_COND_AXIS_OFFSET-0 "-"
*MEAS_COND_AXIS_OFFSET-1 "0.9517000000"
*MEAS_COND_AXIS_OFFSET-2 "1.4485000000"
*MEAS_COND_AXIS_OFFSET-3 "0.0000000000"
*MEAS_COND_AXIS_OFFSET-4 "-"
*MEAS_COND_AXIS_OFFSET-5 "-"
*MEAS_COND_AXIS_OFFSET-6 "-"
*MEAS_COND_AXIS_OFFSET-7 "-"
*MEAS_COND_AXIS_OFFSET-8 "0.0000000000"
*MEAS_COND_AXIS_OFFSET-9 "-"
*MEAS_COND_AXIS_OFFSET-10 "-"
*MEAS_COND_AXIS_OFFSET-11 "-"
*MEAS_COND_AXIS_OFFSET-12 "1.4485000000"
*MEAS_COND_AXIS_OFFSET-13 "-0.4968000000"
*MEAS_COND_AXIS_OFFSET-14 "-"
*MEAS_COND_AXIS_OFFSET-15 "-"
*MEAS_COND_AXIS_OFFSET-16 "-"
*MEAS_COND_AXIS_OFFSET-17 "-"
*MEAS_COND_AXIS_OFFSET-18 "-"
*MEAS_COND_AXIS_OFFSET-19 "-"
*MEAS_COND_AXIS_OFFSET-20 "-"
*MEAS_COND_AXIS_OFFSET-21 "-"
*MEAS_COND_AXIS_OFFSET-22 "-"
*MEAS_COND_AXIS_OFFSET-23 "-"
*MEAS_COND_AXIS_OFFSET-24 "-"
*MEAS_COND_AXIS_OFFSET-25 "-"
*MEAS_COND_AXIS_OFFSET-26 "-"
*MEAS_COND_AXIS_OFFSET-27 "-"
*MEAS_COND_AXIS_OFFSET-28 "-"
*MEAS_COND_AXIS_OFFSET-29 "-"
*MEAS_COND_AXIS_OFFSET-30 "-"
*MEAS_COND_AXIS_OFFSET-31 "-"
*MEAS_COND_AXIS_OFFSET-32 "-"
*MEAS_COND_AXIS_OFFSET-33 "-"
*MEAS_COND_AXIS_OFFSET-34 "-"
*MEAS_COND_AXIS_OFFSET-35 "-"
*MEAS_COND_AXIS_OFFSET-36 "-"
*MEAS_COND_AXIS_OFFSET-37 "-"
*MEAS_COND_AXIS_OFFSET-38 "-"
*MEAS_COND_AXIS_OFFSET-39 "-"
*MEAS_COND_AXIS_POSITION-0 "19.9950000000"
*MEAS_COND_AXIS_POSITION-1 "19.9950000000"
*MEAS_COND_AXIS_POSITION-2 "9.9975000000"
*MEAS_COND_AXIS_POSITION-3 "0.0000000000"
*MEAS_COND_AXIS_POSITION-4 "-0.4117000000"
*MEAS_COND_AXIS_POSITION-5 "0.0000000000"
*MEAS_COND_AXIS_POSITION-6 "0.0000000000"
*MEAS_COND_AXIS_POSITION-7 "19.9950000000"
*MEAS_COND_AXIS_POSITION-8 "0.0000000000"
*MEAS_COND_AXIS_POSITION-9 "0.0000000000"
*MEAS_COND_AXIS_POSITION-10 "90.0000000000"
*MEAS_COND_AXIS_POSITION-11 "0.0000000000"
*MEAS_COND_AXIS_POSITION-12 "9.9975000000"
*MEAS_COND_AXIS_POSITION-13 "9.9975000000"
*MEAS_COND_AXIS_POSITION-14 "-0.4998100000"
*MEAS_COND_AXIS_POSITION-15 "PB"
*MEAS_COND_AXIS_POSITION-16 "0.0000000000"
*MEAS_COND_AXIS_POSITION-17 "Soller_slit_5.0deg"
*MEAS_COND_AXIS_POSITION-18 "1.000mm"
*MEAS_COND_AXIS_POSITION-19 "1.0000000000"
*MEAS_COND_AXIS_POSITION-20 "-1.7303100000"
*MEAS_COND_AXIS_POSITION-21 "0.0000000000"
*MEAS_COND_AXIS_POSITION-22 "10.0mm"
*MEAS_COND_AXIS_POSITION-23 "None"
*MEAS_COND_AXIS_POSITION-24 "None"
*MEAS_COND_AXIS_POSITION-25 "1.000mm"
*MEAS_COND_AXIS_POSITION-26 "1.000mm"
*MEAS_COND_AXIS_POSITION-27 "PSA_open"
*MEAS_COND_AXIS_POSITION-28 "Soller_slit_5.0deg"
*MEAS_COND_AXIS_POSITION-29 "None"
*MEAS_COND_AXIS_POSITION-30 "1.0000000000"
*MEAS_COND_AXIS_POSITION-31 "1.0000000000"
*MEAS_COND_AXIS_POSITION-32 "0.0259400000"
*MEAS_COND_AXIS_POSITION-33 "1/10000"
*MEAS_COND_AXIS_POSITION-34 "None"
*MEAS_COND_AXIS_POSITION-35 "None"
*MEAS_COND_AXIS_POSITION-36 "19.9950000000"
*MEAS_COND_AXIS_POSITION-37 "None"
*MEAS_COND_AXIS_POSITION-38 "671.0000000000"
*MEAS_COND_AXIS_POSITION-39 "560.0000000000"
*MEAS_COND_AXIS_UNIT-0 "deg"
*MEAS_COND_AXIS_UNIT-1 "deg"
*MEAS_COND_AXIS_UNIT-2 "deg"
*MEAS_COND_AXIS_UNIT-3 "deg"
*MEAS_COND_AXIS_UNIT-4 "mm"
*MEAS_COND_AXIS_UNIT-5 "deg"
*MEAS_COND_AXIS_UNIT-6 "deg"
*MEAS_COND_AXIS_UNIT-7 "deg"
*MEAS_COND_AXIS_UNIT-8 "deg"
*MEAS_COND_AXIS_UNIT-9 "deg"
*MEAS_COND_AXIS_UNIT-10 "deg"
*MEAS_COND_AXIS_UNIT-11 "deg"
*MEAS_COND_AXIS_UNIT-12 "deg"
*MEAS_COND_AXIS_UNIT-13 "deg"
*MEAS_COND_AXIS_UNIT-14 "mm"
*MEAS_COND_AXIS_UNIT-15 ""
*MEAS_COND_AXIS_UNIT-16 "pulse"
*MEAS_COND_AXIS_UNIT-17 ""
*MEAS_COND_AXIS_UNIT-18 ""
*MEAS_COND_AXIS_UNIT-19 "mm"
*MEAS_COND_AXIS_UNIT-20 "mm"
*MEAS_COND_AXIS_UNIT-21 ""
*MEAS_COND_AXIS_UNIT-22 ""
*MEAS_COND_AXIS_UNIT-23 ""
*MEAS_COND_AXIS_UNIT-24 ""
*MEAS_COND_AXIS_UNIT-25 ""
*MEAS_COND_AXIS_UNIT-26 ""
*MEAS_COND_AXIS_UNIT-27 ""
*MEAS_COND_AXIS_UNIT-28 ""
*MEAS_COND_AXIS_UNIT-29 ""
*MEAS_COND_AXIS_UNIT-30 "mm"
*MEAS_COND_AXIS_UNIT-31 "mm"
*MEAS_COND_AXIS_UNIT-32 "mm"
*MEAS_COND_AXIS_UNIT-33 ""
*MEAS_COND_AXIS_UNIT-34 ""
*MEAS_COND_AXIS_UNIT-35 ""
*MEAS_COND_AXIS_UNIT-36 "deg"
*MEAS_COND_AXIS_UNIT-37 ""
*MEAS_COND_AXIS_UNIT-38 "V"
*MEAS_COND_AXIS_UNIT-39 "mV"
*MEAS_COND_COUNTER_CNTLOSS_CORR "1.0000000000"
*MEAS_COND_COUNTER_PHABASE "560.0000000000"
*MEAS_COND_COUNTER_PHAWINDOW "878.7500000000"
*MEAS_COND_COUNTER_PHA_UNIT "mV"
*MEAS_COND_COUNTER_TAUDIFF "0.2195060000"
*MEAS_COND_COUNTER_TAUINT "0.8147800000"
*MEAS_COND_IRRADIATION_MODE "OFF"
*MEAS_COND_IRRADIATION_WIDTH ""
*MEAS_COND_OPT_ATTR "Medium resolution parallel beam/RS"
*MEAS_COND_OPT_NAME "@Medium resolution PB"
*MEAS_COND_UNSYMMETRIC_MODE "OFF"
*MEAS_COND_XG_CURRENT "100.0000000000"
*MEAS_COND_XG_VOLTAGE "40.0000000000"
*MEAS_COND_XG_WAVE_TYPE "Ka"
*MEAS_DATA_COUNT "6001.0000000000"
*MEAS_SCAN_AXIS_X "2-Theta/Omega"
*MEAS_SCAN_AXIS_X_INTERNAL "TwoThetaOmega"
*MEAS_SCAN_END_TIME "12/11/25 15:42:10"
*MEAS_SCAN_MODE "CONTINUOUS"
*MEAS_SCAN_MONITOR "0"
*MEAS_SCAN_RESOLUTION_X "0.0002"
*MEAS_SCAN_SPEED "12.000000"
*MEAS_SCAN_SPEED_UNIT "deg/min"
*MEAS_SCAN_SPEED_USER "12.0000"
*MEAS_SCAN_START "20.0000000000"
*MEAS_SCAN_START_TIME "12/11/25 15:37:03"
*MEAS_SCAN_STEP "0.0100000000"
*MEAS_SCAN_STOP "80.0000000000"
*MEAS_SCAN_UNIT_X "deg"
*MEAS_SCAN_UNIT_Y "counts"
*RAS_HEADER_END
*RAS_INT_START
20.0000 79.0000 1.0000
20.0100 77.0000 1.0000
20.0200 95.0000 1.0000
20.0300 94.0000 1.0000
20.0400 89.0000 1.0000
20.0500 99.0000 1.0000
20.0600 70.0000 1.0000
20.0700 94.0000 1.0000
20.0800 85.0000 1.0000
20.0900 81.0000 1.0000
20.1000 75.0000 1.0000
20.1100 100.0000 1.0000
20.1200 81.0000 1.0000
20.1300 76.0000 1.0000
20.1400 83.0000 1.0000
20.1500 87.0000 1.0000
20.1600 112.0000 1.0000
20.1700 80.0000 1.0000
20.1800 85.0000 1.0000
20.1900 77.0000 1.0000
20.2000 91.0000 1.0000
20.2100 72.0000 1.0000
20.2200 82.0000 1.0000
20.2300 95.0000 1.0000
20.2400 90.0000 1.0000
20.2500 77.0000 1.0000
20.2600 94.0000 1.0000
20.2700 81.0000 1.0000
20.2800 84.0000 1.0000
20.2900 98.0000 1.0000
20.3000 82.0000 1.0000
20.3100 80.0000 1.0000
20.3200 87.0000 1.0000
20.3300 86.0000 1.0000
20.3400 89.0000 1.0000
20.3500 93.0000 1.0000
20.3600 71.0000 1.0000
20.3700 66.0000 1.0000
20.3800 75.0000 1.0000
20.3900 94.0000 1.0000
20.4000 66.0000 1.0000
20.4100 83.0000 1.0000
20.4200 91.0000 1.0000
20.4300 91.0000 1.0000
20.4400 78.0000 1.0000
20.4500 91.0000 1.0000
20.4600 83.0000 1.0000
20.4700 69.0000 1.0000
20.4800 94.0000 1.0000
20.4900 99.0000 1.0000
20.5000 76.0000 1.0000
20.5100 92.0000 1.0000
20.5200 84.0000 1.0000
20.5300 88.0000 1.0000
20.5400 85.0000 1.0000
20.5500 81.0000 1.0000
20.5600 75.0000 1.0000
20.5700 86.0000 1.0000
20.5800 83.0000 1.0000
20.5900 86.0000 1.0000
20.6000 71.0000 1.0000
20.6100 87.0000 1.0000
20.6200 93.0000 1.0000
20.6300 108.0000 1.0000
20.6400 96.0000 1.0000
20.6500 90.0000 1.0000
20.6600 92.0000 1.0000
20.6700 107.0000 1.0000
20.6800 88.0000 1.0000
20.6900 95.0000 1.0000
20.7000 96.0000 1.0000
20.7100 92.0000 1.0000
20.7200 96.0000 1.0000
20.7300 82.0000 1.0000
20.7400 82.0000 1.0000
20.7500 73.0000 1.0000
20.7600 90.0000 1.0000
20.7700 75.0000 1.0000
20.7800 91.0000 1.0000
20.7900 84.0000 1.0000
20.8000 82.0000 1.0000
20.8100 91.0000 1.0000
20.8200 89.0000 1.0000
20.8300 93.0000 1.0000
20.8400 93.0000 1.0000
20.8500 90.0000 1.0000
20.8600 92.0000 1.0000
20.8700 80.0000 1.0000
20.8800 81.0000 1.0000
20.8900 84.0000 1.0000
20.9000 89.0000 1.0000
20.9100 76.0000 1.0000
20.9200 85.0000 1.0000
20.9300 93.0000 1.0000
20.9400 76.0000 1.0000
20.9500 83.0000 1.0000
20.9600 86.0000 1.0000
20.9700 81.0000 1.0000
20.9800 79.0000 1.0000
20.9900 92.0000 1.0000
21.0000 101.0000 1.0000
21.0100 80.0000 1.0000
21.0200 68.0000 1.0000
21.0300 75.0000 1.0000
21.0400 87.0000 1.0000
21.0500 75.0000 1.0000
21.0600 84.0000 1.0000
21.0700 92.0000 1.0000
21.0800 70.0000 1.0000
21.0900 99.0000 1.0000
21.1000 91.0000 1.0000
21.1100 87.0000 1.0000
21.1200 79.0000 1.0000
21.1300 85.0000 1.0000
21.1400 85.0000 1.0000
21.1500 77.0000 1.0000
21.1600 80.0000 1.0000
21.1700 73.0000 1.0000
21.1800 77.0000 1.0000
21.1900 82.0000 1.0000
21.2000 83.0000 1.0000
21.2100 89.0000 1.0000
21.2200 78.0000 1.0000
21.2300 71.0000 1.0000
21.2400 91.0000 1.0000
21.2500 87.0000 1.0000
21.2600 89.0000 1.0000
21.2700 96.0000 1.0000
21.2800 96.0000 1.0000
21.2900 69.0000 1.0000
21.3000 77.0000 1.0000
21.3100 85.0000 1.0000
21.3200 90.0000 1.0000
21.3300 82.0000 1.0000
21.3400 95.0000 1.0000
21.3500 82.0000 1.0000
21.3600 81.0000 1.0000
21.3700 88.0000 1.0000
21.3800 73.0000 1.0000
21.3900 71.0000 1.0000
21.4000 84.0000 1.0000
21.4100 88.0000 1.0000
21.4200 89.0000 1.0000
21.4300 95.0000 1.0000
21.4400 69.0000 1.0000
21.4500 71.0000 1.0000
21.4600 77.0000 1.0000
21.4700 67.0000 1.0000
21.4800 104.0000 1.0000
21.4900 88.0000 1.0000
21.5000 98.0000 1.0000
21.5100 80.0000 1.0000
21.5200 97.0000 1.0000
21.5300 83.0000 1.0000
21.5400 83.0000 1.0000
21.5500 84.0000 1.0000
21.5600 68.0000 1.0000
21.5700 91.0000 1.0000
21.5800 86.0000 1.0000
21.5900 84.0000 1.0000
21.6000 83.0000 1.0000
21.6100 89.0000 1.0000
21.6200 88.0000 1.0000
21.6300 88.0000 1.0000
21.6400 78.0000 1.0000
21.6500 59.0000 1.0000
21.6600 89.0000 1.0000
21.6700 94.0000 1.0000
21.6800 90.0000 1.0000
21.6900 83.0000 1.0000
21.7000 80.0000 1.0000
21.7100 91.0000 1.0000
21.7200 84.0000 1.0000
21.7300 86.0000 1.0000
21.7400 92.0000 1.0000
21.7500 86.0000 1.0000
21.7600 85.0000 1.0000
21.7700 82.0000 1.0000
21.7800 75.0000 1.0000
21.7900 80.0000 1.0000
21.8000 74.0000 1.0000
21.8100 87.0000 1.0000
21.8200 80.0000 1.0000
21.8300 84.0000 1.0000
21.8400 85.0000 1.0000
21.8500 91.0000 1.0000
21.8600 72.0000 1.0000
21.8700 66.0000 1.0000
21.8800 77.0000 1.0000
21.8900 84.0000 1.0000
21.9000 72.0000 1.0000
21.9100 88.0000 1.0000
21.9200 91.0000 1.0000
21.9300 92.0000 1.0000
21.9400 91.0000 1.0000
21.9500 92.0000 1.0000
21.9600 69.0000 1.0000
21.9700 93.0000 1.0000
21.9800 76.0000 1.0000
21.9900 85.0000 1.0000
22.0000 80.0000 1.0000
22.0100 75.0000 1.0000
22.0200 83.0000 1.0000
22.0300 91.0000 1.0000
22.0400 87.0000 1.0000
22.0500 82.0000 1.0000
22.0600 70.0000 1.0000
22.0700 76.0000 1.0000
22.0800 91.0000 1.0000
22.0900 103.0000 1.0000
22.1000 93.0000 1.0000
22.1100 81.0000 1.0000
22.1200 86.0000 1.0000
22.1300 101.0000 1.0000
22.1400 65.0000 1.0000
22.1500 84.0000 1.0000
22.1600 87.0000 1.0000
22.1700 90.0000 1.0000
22.1800 74.0000 1.0000
22.1900 88.0000 1.0000
22.2000 66.0000 1.0000
22.2100 69.0000 1.0000
22.2200 94.0000 1.0000
22.2300 79.0000 1.0000
22.2400 89.0000 1.0000
22.2500 79.0000 1.0000
22.2600 104.0000 1.0000
22.2700 82.0000 1.0000
22.2800 85.0000 1.0000
22.2900 85.0000 1.0000
22.3000 104.0000 1.0000
22.3100 79.0000 1.0000
22.3200 86.0000 1.0000
22.3300 81.0000 1.0000
22.3400 88.0000 1.0000
22.3500 87.0000 1.0000
22.3600 82.0000 1.0000
22.3700 87.0000 1.0000
22.3800 99.0000 1.0000
22.3900 87.0000 1.0000
22.4000 82.0000 1.0000
22.4100 94.0000 1.0000
22.4200 76.0000 1.0000
22.4300 73.0000 1.0000
22.4400 86.0000 1.0000
22.4500 66.0000 1.0000
22.4600 94.0000 1.0000
22.4700 93.0000 1.0000
22.4800 80.0000 1.0000
22.4900 67.0000 1.0000
22.5000 89.0000 1.0000
22.5100 93.0000 1.0000
22.5200 83.0000 1.0000
22.5300 79.0000 1.0000
22.5400 83.0000 1.0000
22.5500 84.0000 1.0000
22.5600 82.0000 1.0000
22.5700 78.0000 1.0000
22.5800 80.0000 1.0000
22.5900 69.0000 1.0000
22.6000 93.0000 1.0000
22.6100 79.0000 1.0000
22.6200 87.0000 1.0000
22.6300 73.0000 1.0000
22.6400 94.0000 1.0000
22.6500 73.0000 1.0000
22.6600 83.0000 1.0000
22.6700 81.0000 1.0000
22.6800 71.0000 1.0000
22.6900 79.0000 1.0000
22.7000 92.0000 1.0000
22.7100 75.0000 1.0000
22.7200 80.0000 1.0000
22.7300 77.0000 1.0000
22.7400 67.0000 1.0000
22.7500 88.0000 1.0000
22.7600 74.0000 1.0000
22.7700 91.0000 1.0000
22.7800 99.0000 1.0000
22.7900 80.0000 1.0000
22.8000 86.0000 1.0000
22.8100 86.0000 1.0000
22.8200 87.0000 1.0000
22.8300 91.0000 1.0000
22.8400 73.0000 1.0000
22.8500 91.0000 1.0000
22.8600 93.0000 1.0000
22.8700 89.0000 1.0000
22.8800 85.0000 1.0000
22.8900 75.0000 1.0000
22.9000 80.0000 1.0000
22.9100 100.0000 1.0000
22.9200 97.0000 1.0000
22.9300 90.0000 1.0000
22.9400 96.0000 1.0000
22.9500 88.0000 1.0000
22.9600 97.0000 1.0000
22.9700 91.0000 1.0000
22.9800 91.0000 1.0000
22.9900 84.0000 1.0000
23.0000 89.0000 1.0000
23.0100 93.0000 1.0000
23.0200 85.0000 1.0000
23.0300 78.0000 1.0000
23.0400 97.0000 1.0000
23.0500 86.0000 1.0000
23.0600 99.0000 1.0000
23.0700 82.0000 1.0000
23.0800 77.0000 1.0000
23.0900 76.0000 1.0000
23.1000 82.0000 1.0000
23.1100 83.0000 1.0000
23.1200 87.0000 1.0000
23.1300 91.0000 1.0000
23.1400 78.0000 1.0000
23.1500 88.0000 1.0000
23.1600 105.0000 1.0000
23.1700 86.0000 1.0000
23.1800 78.0000 1.0000
23.1900 92.0000 1.0000
23.2000 94.0000 1.0000
23.2100 94.0000 1.0000
23.2200 99.0000 1.0000
23.2300 81.0000 1.0000
23.2400 83.0000 1.0000
23.2500 109.0000 1.0000
23.2600 98.0000 1.0000
23.2700 91.0000 1.0000
23.2800 100.0000 1.0000
23.2900 89.0000 1.0000
23.3000 91.0000 1.0000
23.3100 79.0000 1.0000
23.3200 80.0000 1.0000
23.3300 88.0000 1.0000
23.3400 94.0000 1.0000
23.3500 79.0000 1.0000
23.3600 87.0000 1.0000
23.3700 89.0000 1.0000
23.3800 98.0000 1.0000
23.3900 74.0000 1.0000
23.4000 83.0000 1.0000
23.4100 101.0000 1.0000
23.4200 96.0000 1.0000
23.4300 87.0000 1.0000
23.4400 83.0000 1.0000
23.4500 81.0000 1.0000
23.4600 86.0000 1.0000
23.4700 99.0000 1.0000
23.4800 95.0000 1.0000
23.4900 74.0000 1.0000
23.5000 83.0000 1.0000
23.5100 84.0000 1.0000
23.5200 75.0000 1.0000
23.5300 75.0000 1.0000
23.5400 85.0000 1.0000
23.5500 72.0000 1.0000
23.5600 81.0000 1.0000
23.5700 98.0000 1.0000
23.5800 78.0000 1.0000
23.5900 79.0000 1.0000
23.6000 92.0000 1.0000
23.6100 74.0000 1.0000
23.6200 94.0000 1.0000
23.6300 63.0000 1.0000
23.6400 88.0000 1.0000
23.6500 92.0000 1.0000
23.6600 77.0000 1.0000
23.6700 93.0000 1.0000
23.6800 86.0000 1.0000
23.6900 94.0000 1.0000
23.7000 79.0000 1.0000
23.7100 80.0000 1.0000
23.7200 71.0000 1.0000
23.7300 88.0000 1.0000
23.7400 74.0000 1.0000
23.7500 75.0000 1.0000
23.7600 85.0000 1.0000
23.7700 78.0000 1.0000
23.7800 86.0000 1.0000
23.7900 86.0000 1.0000
23.8000 106.0000 1.0000
23.8100 84.0000 1.0000
23.8200 89.0000 1.0000
23.8300 80.0000 1.0000
23.8400 82.0000 1.0000
23.8500 91.0000 1.0000
23.8600 100.0000 1.0000
23.8700 86.0000 1.0000
23.8800 76.0000 1.0000
23.8900 84.0000 1.0000
23.9000 86.0000 1.0000
23.9100 107.0000 1.0000
23.9200 81.0000 1.0000
23.9300 76.0000 1.0000
23.9400 98.0000 1.0000
23.9500 85.0000 1.0000
23.9600 89.0000 1.0000
23.9700 89.0000 1.0000
23.9800 86.0000 1.0000
23.9900 66.0000 1.0000
24.0000 67.0000 1.0000
24.0100 104.0000 1.0000
24.0200 77.0000 1.0000
24.0300 93.0000 1.0000
24.0400 100.0000 1.0000
24.0500 71.0000 1.0000
24.0600 77.0000 1.0000
24.0700 88.0000 1.0000
24.0800 80.0000 1.0000
24.0900 93.0000 1.0000
24.1000 89.0000 1.0000
24.1100 90.0000 1.0000
24.1200 86.0000 1.0000
24.1300 72.0000 1.0000
24.1400 93.0000 1.0000
24.1500 85.0000 1.0000
24.1600 87.0000 1.0000
24.1700 101.0000 1.0000
24.1800 88.0000 1.0000
24.1900 91.0000 1.0000
24.2000 82.0000 1.0000
24.2100 85.0000 1.0000
24.2200 90.0000 1.0000
24.2300 80.0000 1.0000
24.2400 78.0000 1.0000
24.2500 85.0000 1.0000
24.2600 85.0000 1.0000
24.2700 95.0000 1.0000
24.2800 82.0000 1.0000
24.2900 94.0000 1.0000
24.3000 99.0000 1.0000
24.3100 90.0000 1.0000
24.3200 83.0000 1.0000
24.3300 89.0000 1.0000
24.3400 81.0000 1.0000
24.3500 84.0000 1.0000
24.3600 73.0000 1.0000
24.3700 96.0000 1.0000
24.3800 92.0000 1.0000
24.3900 78.0000 1.0000
24.4000 97.0000 1.0000
24.4100 78.0000 1.0000
24.4200 95.0000 1.0000
24.4300 90.0000 1.0000
24.4400 90.0000 1.0000
24.4500 83.0000 1.0000
24.4600 82.0000 1.0000
24.4700 79.0000 1.0000
24.4800 94.0000 1.0000
24.4900 85.0000 1.0000
24.5000 91.0000 1.0000
24.5100 94.0000 1.0000
24.5200 91.0000 1.0000
24.5300 104.0000 1.0000
24.5400 88.0000 1.0000
24.5500 83.0000 1.0000
24.5600 101.0000 1.0000
24.5700 98.0000 1.0000
24.5800 81.0000 1.0000
24.5900 80.0000 1.0000
24.6000 99.0000 1.0000
24.6100 89.0000 1.0000
24.6200 86.0000 1.0000
24.6300 96.0000 1.0000
24.6400 96.0000 1.0000
24.6500 101.0000 1.0000
24.6600 85.0000 1.0000
24.6700 84.0000 1.0000
24.6800 77.0000 1.0000
24.6900 94.0000 1.0000
24.7000 84.0000 1.0000
24.7100 86.0000 1.0000
24.7200 97.0000 1.0000
24.7300 90.0000 1.0000
24.7400 98.0000 1.0000
24.7500 85.0000 1.0000
24.7600 92.0000 1.0000
24.7700 98.0000 1.0000
24.7800 81.0000 1.0000
24.7900 80.0000 1.0000
24.8000 95.0000 1.0000
24.8100 87.0000 1.0000
24.8200 80.0000 1.0000
24.8300 94.0000 1.0000
24.8400 87.0000 1.0000
24.8500 108.0000 1.0000
24.8600 96.0000 1.0000
24.8700 84.0000 1.0000
24.8800 93.0000 1.0000
24.8900 95.0000 1.0000
24.9000 98.0000 1.0000
24.9100 88.0000 1.0000
24.9200 106.0000 1.0000
24.9300 88.0000 1.0000
24.9400 87.0000 1.0000
24.9500 89.0000 1.0000
24.9600 94.0000 1.0000
24.9700 88.0000 1.0000
24.9800 121.0000 1.0000
24.9900 104.0000 1.0000
25.0000 104.0000 1.0000
25.0100 82.0000 1.0000
25.0200 87.0000 1.0000
25.0300 96.0000 1.0000
25.0400 100.0000 1.0000
25.0500 90.0000 1.0000
25.0600 92.0000 1.0000
25.0700 89.0000 1.0000
25.0800 102.0000 1.0000
25.0900 82.0000 1.0000
25.1000 87.0000 1.0000
25.1100 107.0000 1.0000
25.1200 96.0000 1.0000
25.1300 84.0000 1.0000
25.1400 96.0000 1.0000
25.1500 89.0000 1.0000
25.1600 78.0000 1.0000
25.1700 99.0000 1.0000
25.1800 108.0000 1.0000
25.1900 96.0000 1.0000
25.2000 117.0000 1.0000
25.2100 98.0000 1.0000
25.2200 102.0000 1.0000
25.2300 107.0000 1.0000
25.2400 88.0000 1.0000
25.2500 111.0000 1.0000
25.2600 87.0000 1.0000
25.2700 103.0000 1.0000
25.2800 92.0000 1.0000
25.2900 115.0000 1.0000
25.3000 106.0000 1.0000
25.3100 95.0000 1.0000
25.3200 94.0000 1.0000
25.3300 95.0000 1.0000
25.3400 121.0000 1.0000
25.3500 115.0000 1.0000
25.3600 94.0000 1.0000
25.3700 101.0000 1.0000
25.3800 89.0000 1.0000
25.3900 97.0000 1.0000
25.4000 110.0000 1.0000
25.4100 115.0000 1.0000
25.4200 90.0000 1.0000
25.4300 118.0000 1.0000
25.4400 128.0000 1.0000
25.4500 106.0000 1.0000
25.4600 99.0000 1.0000
25.4700 122.0000 1.0000
25.4800 103.0000 1.0000
25.4900 112.0000 1.0000
25.5000 105.0000 1.0000
25.5100 95.0000 1.0000
25.5200 109.0000 1.0000
25.5300 102.0000 1.0000
25.5400 106.0000 1.0000
25.5500 103.0000 1.0000
25.5600 107.0000 1.0000
25.5700 93.0000 1.0000
25.5800 101.0000 1.0000
25.5900 104.0000 1.0000
25.6000 131.0000 1.0000
25.6100 123.0000 1.0000
25.6200 99.0000 1.0000
25.6300 111.0000 1.0000
25.6400 112.0000 1.0000
25.6500 108.0000 1.0000
25.6600 115.0000 1.0000
25.6700 110.0000 1.0000
25.6800 118.0000 1.0000
25.6900 111.0000 1.0000
25.7000 131.0000 1.0000
25.7100 121.0000 1.0000
25.7200 128.0000 1.0000
25.7300 116.0000 1.0000
25.7400 136.0000 1.0000
25.7500 119.0000 1.0000
25.7600 129.0000 1.0000
25.7700 117.0000 1.0000
25.7800 121.0000 1.0000
25.7900 119.0000 1.0000
25.8000 117.0000 1.0000
25.8100 135.0000 1.0000
25.8200 127.0000 1.0000
25.8300 128.0000 1.0000
25.8400 133.0000 1.0000
25.8500 135.0000 1.0000
25.8600 119.0000 1.0000
25.8700 154.0000 1.0000
25.8800 119.0000 1.0000
25.8900 143.0000 1.0000
25.9000 178.0000 1.0000
25.9100 160.0000 1.0000
25.9200 148.0000 1.0000
25.9300 139.0000 1.0000
25.9400 131.0000 1.0000
25.9500 179.0000 1.0000
25.9600 124.0000 1.0000
25.9700 114.0000 1.0000
25.9800 160.0000 1.0000
25.9900 155.0000 1.0000
26.0000 154.0000 1.0000
26.0100 176.0000 1.0000
26.0200 141.0000 1.0000
26.0300 166.0000 1.0000
26.0400 176.0000 1.0000
26.0500 160.0000 1.0000
26.0600 177.0000 1.0000
26.0700 202.0000 1.0000
26.0800 194.0000 1.0000
26.0900 199.0000 1.0000
26.1000 173.0000 1.0000
26.1100 215.0000 1.0000
26.1200 190.0000 1.0000
26.1300 188.0000 1.0000
26.1400 202.0000 1.0000
26.1500 215.0000 1.0000
26.1600 187.0000 1.0000
26.1700 231.0000 1.0000
26.1800 208.0000 1.0000
26.1900 189.0000 1.0000
26.2000 204.0000 1.0000
26.2100 186.0000 1.0000
26.2200 211.0000 1.0000
26.2300 239.0000 1.0000
26.2400 236.0000 1.0000
26.2500 246.0000 1.0000
26.2600 220.0000 1.0000
26.2700 246.0000 1.0000
26.2800 229.0000 1.0000
26.2900 240.0000 1.0000
26.3000 236.0000 1.0000
26.3100 238.0000 1.0000
26.3200 238.0000 1.0000
26.3300 240.0000 1.0000
26.3400 226.0000 1.0000
26.3500 263.0000 1.0000
26.3600 251.0000 1.0000
26.3700 246.0000 1.0000
26.3800 238.0000 1.0000
26.3900 275.0000 1.0000
26.4000 245.0000 1.0000
26.4100 255.0000 1.0000
26.4200 245.0000 1.0000
26.4300 216.0000 1.0000
26.4400 220.0000 1.0000
26.4500 226.0000 1.0000
26.4600 239.0000 1.0000
26.4700 238.0000 1.0000
26.4800 224.0000 1.0000
26.4900 268.0000 1.0000
26.5000 214.0000 1.0000
26.5100 229.0000 1.0000
26.5200 239.0000 1.0000
26.5300 237.0000 1.0000
26.5400 208.0000 1.0000
26.5500 198.0000 1.0000
26.5600 217.0000 1.0000
26.5700 238.0000 1.0000
26.5800 206.0000 1.0000
26.5900 209.0000 1.0000
26.6000 221.0000 1.0000
26.6100 209.0000 1.0000
26.6200 222.0000 1.0000
26.6300 191.0000 1.0000
26.6400 202.0000 1.0000
26.6500 191.0000 1.0000
26.6600 214.0000 1.0000
26.6700 167.0000 1.0000
26.6800 193.0000 1.0000
26.6900 191.0000 1.0000
26.7000 163.0000 1.0000
26.7100 173.0000 1.0000
26.7200 183.0000 1.0000
26.7300 172.0000 1.0000
26.7400 180.0000 1.0000
26.7500 183.0000 1.0000
26.7600 198.0000 1.0000
26.7700 187.0000 1.0000
26.7800 171.0000 1.0000
26.7900 178.0000 1.0000
26.8000 160.0000 1.0000
26.8100 166.0000 1.0000
26.8200 170.0000 1.0000
26.8300 147.0000 1.0000
26.8400 150.0000 1.0000
26.8500 141.0000 1.0000
26.8600 154.0000 1.0000
26.8700 145.0000 1.0000
26.8800 149.0000 1.0000
26.8900 148.0000 1.0000
26.9000 143.0000 1.0000
26.9100 122.0000 1.0000
26.9200 133.0000 1.0000
26.9300 137.0000 1.0000
26.9400 149.0000 1.0000
26.9500 136.0000 1.0000
26.9600 115.0000 1.0000
26.9700 112.0000 1.0000
26.9800 120.0000 1.0000
26.9900 113.0000 1.0000
27.0000 138.0000 1.0000
27.0100 109.0000 1.0000
27.0200 91.0000 1.0000
27.0300 114.0000 1.0000
27.0400 112.0000 1.0000
27.0500 106.0000 1.0000
27.0600 126.0000 1.0000
27.0700 115.0000 1.0000
27.0800 104.0000 1.0000
27.0900 128.0000 1.0000
27.1000 107.0000 1.0000
27.1100 100.0000 1.0000
27.1200 101.0000 1.0000
27.1300 102.0000 1.0000
27.1400 108.0000 1.0000
27.1500 105.0000 1.0000
27.1600 98.0000 1.0000
27.1700 93.0000 1.0000
27.1800 103.0000 1.0000
27.1900 94.0000 1.0000
27.2000 113.0000 1.0000
27.2100 100.0000 1.0000
27.2200 94.0000 1.0000
27.2300 107.0000 1.0000
27.2400 94.0000 1.0000
27.2500 91.0000 1.0000
27.2600 91.0000 1.0000
27.2700 100.0000 1.0000
27.2800 102.0000 1.0000
27.2900 103.0000 1.0000
27.3000 101.0000 1.0000
27.3100 109.0000 1.0000
27.3200 93.0000 1.0000
27.3300 97.0000 1.0000
27.3400 103.0000 1.0000
27.3500 86.0000 1.0000
27.3600 85.0000 1.0000
27.3700 83.0000 1.0000
27.3800 94.0000 1.0000
27.3900 97.0000 1.0000
27.4000 98.0000 1.0000
27.4100 96.0000 1.0000
27.4200 80.0000 1.0000
27.4300 97.0000 1.0000
27.4400 103.0000 1.0000
27.4500 101.0000 1.0000
27.4600 82.0000 1.0000
27.4700 106.0000 1.0000
27.4800 83.0000 1.0000
27.4900 103.0000 1.0000
27.5000 100.0000 1.0000
27.5100 104.0000 1.0000
27.5200 97.0000 1.0000
27.5300 92.0000 1.0000
27.5400 81.0000 1.0000
27.5500 89.0000 1.0000
27.5600 85.0000 1.0000
27.5700 83.0000 1.0000
27.5800 86.0000 1.0000
27.5900 77.0000 1.0000
27.6000 100.0000 1.0000
27.6100 89.0000 1.0000
27.6200 82.0000 1.0000
27.6300 84.0000 1.0000
27.6400 89.0000 1.0000
27.6500 80.0000 1.0000
27.6600 104.0000 1.0000
27.6700 80.0000 1.0000
27.6800 83.0000 1.0000
27.6900 94.0000 1.0000
27.7000 78.0000 1.0000
27.7100 78.0000 1.0000
27.7200 79.0000 1.0000
27.7300 92.0000 1.0000
27.7400 99.0000 1.0000
27.7500 94.0000 1.0000
27.7600 81.0000 1.0000
27.7700 100.0000 1.0000
27.7800 101.0000 1.0000
27.7900 84.0000 1.0000
27.8000 88.0000 1.0000
27.8100 75.0000 1.0000
27.8200 88.0000 1.0000
27.8300 84.0000 1.0000
27.8400 86.0000 1.0000
27.8500 95.0000 1.0000
27.8600 105.0000 1.0000
27.8700 96.0000 1.0000
27.8800 71.0000 1.0000
27.8900 93.0000 1.0000
27.9000 82.0000 1.0000
27.9100 75.0000 1.0000
27.9200 87.0000 1.0000
27.9300 74.0000 1.0000
27.9400 88.0000 1.0000
27.9500 100.0000 1.0000
27.9600 98.0000 1.0000
27.9700 77.0000 1.0000
27.9800 91.0000 1.0000
27.9900 108.0000 1.0000
28.0000 82.0000 1.0000
28.0100 72.0000 1.0000
28.0200 84.0000 1.0000
28.0300 107.0000 1.0000
28.0400 96.0000 1.0000
28.0500 71.0000 1.0000
28.0600 94.0000 1.0000
28.0700 75.0000 1.0000
28.0800 96.0000 1.0000
28.0900 91.0000 1.0000
28.1000 82.0000 1.0000
28.1100 90.0000 1.0000
28.1200 90.0000 1.0000
28.1300 88.0000 1.0000
28.1400 79.0000 1.0000
28.1500 97.0000 1.0000
28.1600 71.0000 1.0000
28.1700 92.0000 1.0000
28.1800 56.0000 1.0000
28.1900 91.0000 1.0000
28.2000 86.0000 1.0000
28.2100 84.0000 1.0000
28.2200 82.0000 1.0000
28.2300 85.0000 1.0000
28.2400 82.0000 1.0000
28.2500 87.0000 1.0000
28.2600 78.0000 1.0000
28.2700 92.0000 1.0000
28.2800 100.0000 1.0000
28.2900 88.0000 1.0000
28.3000 90.0000 1.0000
28.3100 80.0000 1.0000
28.3200 76.0000 1.0000
28.3300 101.0000 1.0000
28.3400 74.0000 1.0000
28.3500 76.0000 1.0000
28.3600 80.0000 1.0000
28.3700 80.0000 1.0000
28.3800 83.0000 1.0000
28.3900 82.0000 1.0000
28.4000 61.0000 1.0000
28.4100 67.0000 1.0000
28.4200 100.0000 1.0000
28.4300 72.0000 1.0000
28.4400 85.0000 1.0000
28.4500 90.0000 1.0000
28.4600 95.0000 1.0000
28.4700 89.0000 1.0000
28.4800 90.0000 1.0000
28.4900 86.0000 1.0000
28.5000 90.0000 1.0000
28.5100 90.0000 1.0000
28.5200 82.0000 1.0000
28.5300 97.0000 1.0000
28.5400 77.0000 1.0000
28.5500 89.0000 1.0000
28.5600 82.0000 1.0000
28.5700 64.0000 1.0000
28.5800 82.0000 1.0000
28.5900 84.0000 1.0000
28.6000 99.0000 1.0000
28.6100 85.0000 1.0000
28.6200 90.0000 1.0000
28.6300 84.0000 1.0000
28.6400 77.0000 1.0000
28.6500 80.0000 1.0000
28.6600 76.0000 1.0000
28.6700 72.0000 1.0000
28.6800 91.0000 1.0000
28.6900 79.0000 1.0000
28.7000 86.0000 1.0000
28.7100 66.0000 1.0000
28.7200 75.0000 1.0000
28.7300 82.0000 1.0000
28.7400 82.0000 1.0000
28.7500 80.0000 1.0000
28.7600 82.0000 1.0000
28.7700 92.0000 1.0000
28.7800 95.0000 1.0000
28.7900 95.0000 1.0000
28.8000 89.0000 1.0000
28.8100 81.0000 1.0000
28.8200 72.0000 1.0000
28.8300 93.0000 1.0000
28.8400 90.0000 1.0000
28.8500 79.0000 1.0000
28.8600 85.0000 1.0000
28.8700 79.0000 1.0000
28.8800 74.0000 1.0000
28.8900 79.0000 1.0000
28.9000 78.0000 1.0000
28.9100 84.0000 1.0000
28.9200 87.0000 1.0000
28.9300 79.0000 1.0000
28.9400 80.0000 1.0000
28.9500 90.0000 1.0000
28.9600 72.0000 1.0000
28.9700 70.0000 1.0000
28.9800 92.0000 1.0000
28.9900 58.0000 1.0000
29.0000 76.0000 1.0000
29.0100 82.0000 1.0000
29.0200 92.0000 1.0000
29.0300 80.0000 1.0000
29.0400 100.0000 1.0000
29.0500 88.0000 1.0000
29.0600 85.0000 1.0000
29.0700 87.0000 1.0000
29.0800 90.0000 1.0000
29.0900 79.0000 1.0000
29.1000 83.0000 1.0000
29.1100 104.0000 1.0000
29.1200 86.0000 1.0000
29.1300 88.0000 1.0000
29.1400 89.0000 1.0000
29.1500 94.0000 1.0000
29.1600 90.0000 1.0000
29.1700 89.0000 1.0000
29.1800 76.0000 1.0000
29.1900 87.0000 1.0000
29.2000 68.0000 1.0000
29.2100 84.0000 1.0000
29.2200 79.0000 1.0000
29.2300 72.0000 1.0000
29.2400 73.0000 1.0000
29.2500 97.0000 1.0000
29.2600 77.0000 1.0000
29.2700 82.0000 1.0000
29.2800 90.0000 1.0000
29.2900 84.0000 1.0000
29.3000 88.0000 1.0000
29.3100 87.0000 1.0000
29.3200 77.0000 1.0000
29.3300 89.0000 1.0000
29.3400 104.0000 1.0000
29.3500 94.0000 1.0000
29.3600 100.0000 1.0000
29.3700 93.0000 1.0000
29.3800 92.0000 1.0000
29.3900 94.0000 1.0000
29.4000 96.0000 1.0000
29.4100 89.0000 1.0000
29.4200 94.0000 1.0000
29.4300 92.0000 1.0000
29.4400 99.0000 1.0000
29.4500 79.0000 1.0000
29.4600 82.0000 1.0000
29.4700 73.0000 1.0000
29.4800 80.0000 1.0000
29.4900 91.0000 1.0000
29.5000 82.0000 1.0000
29.5100 103.0000 1.0000
29.5200 82.0000 1.0000
29.5300 95.0000 1.0000
29.5400 90.0000 1.0000
29.5500 81.0000 1.0000
29.5600 79.0000 1.0000
29.5700 78.0000 1.0000
29.5800 86.0000 1.0000
29.5900 106.0000 1.0000
29.6000 94.0000 1.0000
29.6100 84.0000 1.0000
29.6200 79.0000 1.0000
29.6300 92.0000 1.0000
29.6400 89.0000 1.0000
29.6500 88.0000 1.0000
29.6600 80.0000 1.0000
29.6700 81.0000 1.0000
29.6800 90.0000 1.0000
29.6900 81.0000 1.0000
29.7000 77.0000 1.0000
29.7100 80.0000 1.0000
29.7200 101.0000 1.0000
29.7300 81.0000 1.0000
29.7400 98.0000 1.0000
29.7500 93.0000 1.0000
29.7600 87.0000 1.0000
29.7700 90.0000 1.0000
29.7800 105.0000 1.0000
29.7900 91.0000 1.0000
29.8000 81.0000 1.0000
29.8100 73.0000 1.0000
29.8200 92.0000 1.0000
29.8300 78.0000 1.0000
29.8400 101.0000 1.0000
29.8500 78.0000 1.0000
29.8600 82.0000 1.0000
29.8700 83.0000 1.0000
29.8800 92.0000 1.0000
29.8900 81.0000 1.0000
29.9000 80.0000 1.0000
29.9100 75.0000 1.0000
29.9200 99.0000 1.0000
29.9300 89.0000 1.0000
29.9400 91.0000 1.0000
29.9500 76.0000 1.0000
29.9600 75.0000 1.0000
29.9700 82.0000 1.0000
29.9800 70.0000 1.0000
29.9900 96.0000 1.0000
30.0000 84.0000 1.0000
30.0100 88.0000 1.0000
30.0200 86.0000 1.0000
30.0300 69.0000 1.0000
30.0400 88.0000 1.0000
30.0500 97.0000 1.0000
30.0600 79.0000 1.0000
30.0700 76.0000 1.0000
30.0800 80.0000 1.0000
30.0900 94.0000 1.0000
30.1000 89.0000 1.0000
30.1100 74.0000 1.0000
30.1200 104.0000 1.0000
30.1300 80.0000 1.0000
30.1400 84.0000 1.0000
30.1500 78.0000 1.0000
30.1600 65.0000 1.0000
30.1700 81.0000 1.0000
30.1800 85.0000 1.0000
30.1900 86.0000 1.0000
30.2000 98.0000 1.0000
30.2100 80.0000 1.0000
30.2200 94.0000 1.0000
30.2300 83.0000 1.0000
30.2400 82.0000 1.0000
30.2500 87.0000 1.0000
30.2600 68.0000 1.0000
30.2700 84.0000 1.0000
30.2800 79.0000 1.0000
30.2900 83.0000 1.0000
30.3000 93.0000 1.0000
30.3100 93.0000 1.0000
30.3200 78.0000 1.0000
30.3300 92.0000 1.0000
30.3400 77.0000 1.0000
30.3500 72.0000 1.0000
30.3600 78.0000 1.0000
30.3700 91.0000 1.0000
30.3800 76.0000 1.0000
30.3900 78.0000 1.0000
30.4000 89.0000 1.0000
30.4100 93.0000 1.0000
30.4200 79.0000 1.0000
30.4300 79.0000 1.0000
30.4400 83.0000 1.0000
30.4500 90.0000 1.0000
30.4600 84.0000 1.0000
30.4700 84.0000 1.0000
30.4800 95.0000 1.0000
30.4900 82.0000 1.0000
30.5000 84.0000 1.0000
30.5100 79.0000 1.0000
30.5200 77.0000 1.0000
30.5300 93.0000 1.0000
30.5400 96.0000 1.0000
30.5500 73.0000 1.0000
30.5600 106.0000 1.0000
30.5700 57.0000 1.0000
30.5800 91.0000 1.0000
30.5900 77.0000 1.0000
30.6000 102.0000 1.0000
30.6100 97.0000 1.0000
30.6200 70.0000 1.0000
30.6300 75.0000 1.0000
30.6400 73.0000 1.0000
30.6500 92.0000 1.0000
30.6600 86.0000 1.0000
30.6700 83.0000 1.0000
30.6800 88.0000 1.0000
30.6900 83.0000 1.0000
30.7000 85.0000 1.0000
30.7100 86.0000 1.0000
30.7200 90.0000 1.0000
30.7300 92.0000 1.0000
30.7400 86.0000 1.0000
30.7500 106.0000 1.0000
30.7600 72.0000 1.0000
30.7700 80.0000 1.0000
30.7800 62.0000 1.0000
30.7900 84.0000 1.0000
30.8000 99.0000 1.0000
30.8100 86.0000 1.0000
30.8200 82.0000 1.0000
30.8300 77.0000 1.0000
30.8400 80.0000 1.0000
30.8500 92.0000 1.0000
30.8600 72.0000 1.0000
30.8700 92.0000 1.0000
30.8800 76.0000 1.0000
30.8900 84.0000 1.0000
30.9000 80.0000 1.0000
30.9100 74.0000 1.0000
30.9200 75.0000 1.0000
30.9300 80.0000 1.0000
30.9400 92.0000 1.0000
30.9500 65.0000 1.0000
30.9600 74.0000 1.0000
30.9700 69.0000 1.0000
30.9800 75.0000 1.0000
30.9900 83.0000 1.0000
31.0000 72.0000 1.0000
31.0100 80.0000 1.0000
31.0200 78.0000 1.0000
31.0300 81.0000 1.0000
31.0400 88.0000 1.0000
31.0500 93.0000 1.0000
31.0600 95.0000 1.0000
31.0700 87.0000 1.0000
31.0800 89.0000 1.0000
31.0900 100.0000 1.0000
31.1000 103.0000 1.0000
31.1100 87.0000 1.0000
31.1200 81.0000 1.0000
31.1300 76.0000 1.0000
31.1400 95.0000 1.0000
31.1500 75.0000 1.0000
31.1600 69.0000 1.0000
31.1700 89.0000 1.0000
31.1800 72.0000 1.0000
31.1900 75.0000 1.0000
31.2000 71.0000 1.0000
31.2100 71.0000 1.0000
31.2200 81.0000 1.0000
31.2300 67.0000 1.0000
31.2400 82.0000 1.0000
31.2500 83.0000 1.0000
31.2600 94.0000 1.0000
31.2700 81.0000 1.0000
31.2800 79.0000 1.0000
31.2900 87.0000 1.0000
31.3000 88.0000 1.0000
31.3100 71.0000 1.0000
31.3200 82.0000 1.0000
31.3300 91.0000 1.0000
31.3400 87.0000 1.0000
31.3500 91.0000 1.0000
31.3600 102.0000 1.0000
31.3700 82.0000 1.0000
31.3800 83.0000 1.0000
31.3900 79.0000 1.0000
31.4000 84.0000 1.0000
31.4100 86.0000 1.0000
31.4200 75.0000 1.0000
31.4300 100.0000 1.0000
31.4400 77.0000 1.0000
31.4500 74.0000 1.0000
31.4600 96.0000 1.0000
31.4700 97.0000 1.0000
31.4800 89.0000 1.0000
31.4900 74.0000 1.0000
31.5000 89.0000 1.0000
31.5100 89.0000 1.0000
31.5200 104.0000 1.0000
31.5300 82.0000 1.0000
31.5400 77.0000 1.0000
31.5500 83.0000 1.0000
31.5600 84.0000 1.0000
31.5700 91.0000 1.0000
31.5800 83.0000 1.0000
31.5900 90.0000 1.0000
31.6000 72.0000 1.0000
31.6100 98.0000 1.0000
31.6200 92.0000 1.0000
31.6300 91.0000 1.0000
31.6400 94.0000 1.0000
31.6500 74.0000 1.0000
31.6600 86.0000 1.0000
31.6700 82.0000 1.0000
31.6800 72.0000 1.0000
31.6900 78.0000 1.0000
31.7000 67.0000 1.0000
31.7100 76.0000 1.0000
31.7200 76.0000 1.0000
31.7300 79.0000 1.0000
31.7400 100.0000 1.0000
31.7500 89.0000 1.0000
31.7600 74.0000 1.0000
31.7700 79.0000 1.0000
31.7800 69.0000 1.0000
31.7900 85.0000 1.0000
31.8000 72.0000 1.0000
31.8100 90.0000 1.0000
31.8200 88.0000 1.0000
31.8300 85.0000 1.0000
31.8400 90.0000 1.0000
31.8500 83.0000 1.0000
31.8600 78.0000 1.0000
31.8700 94.0000 1.0000
31.8800 92.0000 1.0000
31.8900 78.0000 1.0000
31.9000 78.0000 1.0000
31.9100 92.0000 1.0000
31.9200 85.0000 1.0000
31.9300 79.0000 1.0000
31.9400 84.0000 1.0000
31.9500 71.0000 1.0000
31.9600 86.0000 1.0000
31.9700 97.0000 1.0000
31.9800 93.0000 1.0000
31.9900 93.0000 1.0000
32.0000 95.0000 1.0000
32.0100 69.0000 1.0000
32.0200 85.0000 1.0000
32.0300 75.0000 1.0000
32.0400 90.0000 1.0000
32.0500 79.0000 1.0000
32.0600 93.0000 1.0000
32.0700 83.0000 1.0000
32.0800 91.0000 1.0000
32.0900 78.0000 1.0000
32.1000 65.0000 1.0000
32.1100 80.0000 1.0000
32.1200 82.0000 1.0000
32.1300 71.0000 1.0000
32.1400 88.0000 1.0000
32.1500 68.0000 1.0000
32.1600 77.0000 1.0000
32.1700 84.0000 1.0000
32.1800 94.0000 1.0000
32.1900 106.0000 1.0000
32.2000 76.0000 1.0000
32.2100 80.0000 1.0000
32.2200 77.0000 1.0000
32.2300 63.0000 1.0000
32.2400 94.0000 1.0000
32.2500 79.0000 1.0000
32.2600 82.0000 1.0000
32.2700 85.0000 1.0000
32.2800 80.0000 1.0000
32.2900 95.0000 1.0000
32.3000 76.0000 1.0000
32.3100 98.0000 1.0000
32.3200 82.0000 1.0000
32.3300 79.0000 1.0000
32.3400 93.0000 1.0000
32.3500 89.0000 1.0000
32.3600 79.0000 1.0000
32.3700 71.0000 1.0000
32.3800 85.0000 1.0000
32.3900 77.0000 1.0000
32.4000 100.0000 1.0000
32.4100 75.0000 1.0000
32.4200 81.0000 1.0000
32.4300 89.0000 1.0000
32.4400 74.0000 1.0000
32.4500 78.0000 1.0000
32.4600 98.0000 1.0000
32.4700 84.0000 1.0000
32.4800 88.0000 1.0000
32.4900 89.0000 1.0000
32.5000 88.0000 1.0000
32.5100 73.0000 1.0000
32.5200 70.0000 1.0000
32.5300 81.0000 1.0000
32.5400 63.0000 1.0000
32.5500 89.0000 1.0000
32.5600 84.0000 1.0000
32.5700 70.0000 1.0000
32.5800 99.0000 1.0000
32.5900 86.0000 1.0000
32.6000 81.0000 1.0000
32.6100 90.0000 1.0000
32.6200 80.0000 1.0000
32.6300 72.0000 1.0000
32.6400 96.0000 1.0000
32.6500 70.0000 1.0000
32.6600 86.0000 1.0000
32.6700 94.0000 1.0000
32.6800 95.0000 1.0000
32.6900 70.0000 1.0000
32.7000 107.0000 1.0000
32.7100 76.0000 1.0000
32.7200 90.0000 1.0000
32.7300 94.0000 1.0000
32.7400 101.0000 1.0000
32.7500 77.0000 1.0000
32.7600 90.0000 1.0000
32.7700 82.0000 1.0000
32.7800 86.0000 1.0000
32.7900 76.0000 1.0000
32.8000 80.0000 1.0000
32.8100 89.0000 1.0000
32.8200 82.0000 1.0000
32.8300 75.0000 1.0000
32.8400 77.0000 1.0000
32.8500 83.0000 1.0000
32.8600 93.0000 1.0000
32.8700 86.0000 1.0000
32.8800 88.0000 1.0000
32.8900 90.0000 1.0000
32.9000 85.0000 1.0000
32.9100 77.0000 1.0000
32.9200 98.0000 1.0000
32.9300 76.0000 1.0000
32.9400 83.0000 1.0000
32.9500 90.0000 1.0000
32.9600 88.0000 1.0000
32.9700 63.0000 1.0000
32.9800 91.0000 1.0000
32.9900 82.0000 1.0000
33.0000 80.0000 1.0000
33.0100 103.0000 1.0000
33.0200 109.0000 1.0000
33.0300 89.0000 1.0000
33.0400 85.0000 1.0000
33.0500 86.0000 1.0000
33.0600 86.0000 1.0000
33.0700 97.0000 1.0000
33.0800 81.0000 1.0000
33.0900 75.0000 1.0000
33.1000 84.0000 1.0000
33.1100 90.0000 1.0000
33.1200 90.0000 1.0000
33.1300 88.0000 1.0000
33.1400 111.0000 1.0000
33.1500 79.0000 1.0000
33.1600 94.0000 1.0000
33.1700 95.0000 1.0000
33.1800 84.0000 1.0000
33.1900 99.0000 1.0000
33.2000 92.0000 1.0000
33.2100 70.0000 1.0000
33.2200 81.0000 1.0000
33.2300 72.0000 1.0000
33.2400 107.0000 1.0000
33.2500 73.0000 1.0000
33.2600 83.0000 1.0000
33.2700 81.0000 1.0000
33.2800 80.0000 1.0000
33.2900 79.0000 1.0000
33.3000 82.0000 1.0000
33.3100 76.0000 1.0000
33.3200 82.0000 1.0000
33.3300 85.0000 1.0000
33.3400 83.0000 1.0000
33.3500 94.0000 1.0000
33.3600 87.0000 1.0000
33.3700 89.0000 1.0000
33.3800 87.0000 1.0000
33.3900 77.0000 1.0000
33.4000 93.0000 1.0000
33.4100 94.0000 1.0000
33.4200 92.0000 1.0000
33.4300 77.0000 1.0000
33.4400 85.0000 1.0000
33.4500 85.0000 1.0000
33.4600 80.0000 1.0000
33.4700 84.0000 1.0000
33.4800 90.0000 1.0000
33.4900 77.0000 1.0000
33.5000 101.0000 1.0000
33.5100 80.0000 1.0000
33.5200 87.0000 1.0000
33.5300 60.0000 1.0000
33.5400 99.0000 1.0000
33.5500 74.0000 1.0000
33.5600 79.0000 1.0000
33.5700 86.0000 1.0000
33.5800 96.0000 1.0000
33.5900 93.0000 1.0000
33.6000 86.0000 1.0000
33.6100 105.0000 1.0000
33.6200 89.0000 1.0000
33.6300 96.0000 1.0000
33.6400 97.0000 1.0000
33.6500 96.0000 1.0000
33.6600 86.0000 1.0000
33.6700 105.0000 1.0000
33.6800 90.0000 1.0000
33.6900 81.0000 1.0000
33.7000 69.0000 1.0000
33.7100 85.0000 1.0000
33.7200 81.0000 1.0000
33.7300 88.0000 1.0000
33.7400 84.0000 1.0000
33.7500 72.0000 1.0000
33.7600 86.0000 1.0000
33.7700 70.0000 1.0000
33.7800 80.0000 1.0000
33.7900 75.0000 1.0000
33.8000 93.0000 1.0000
33.8100 101.0000 1.0000
33.8200 89.0000 1.0000
33.8300 84.0000 1.0000
33.8400 95.0000 1.0000
33.8500 87.0000 1.0000
33.8600 73.0000 1.0000
33.8700 101.0000 1.0000
33.8800 72.0000 1.0000
33.8900 76.0000 1.0000
33.9000 89.0000 1.0000
33.9100 83.0000 1.0000
33.9200 84.0000 1.0000
33.9300 95.0000 1.0000
33.9400 92.0000 1.0000
33.9500 96.0000 1.0000
33.9600 90.0000 1.0000
33.9700 87.0000 1.0000
33.9800 88.0000 1.0000
33.9900 87.0000 1.0000
34.0000 84.0000 1.0000
34.0100 77.0000 1.0000
34.0200 91.0000 1.0000
34.0300 101.0000 1.0000
34.0400 81.0000 1.0000
34.0500 97.0000 1.0000
34.0600 76.0000 1.0000
34.0700 93.0000 1.0000
34.0800 56.0000 1.0000
34.0900 87.0000 1.0000
34.1000 69.0000 1.0000
34.1100 85.0000 1.0000
34.1200 76.0000 1.0000
34.1300 82.0000 1.0000
34.1400 90.0000 1.0000
34.1500 93.0000 1.0000
34.1600 81.0000 1.0000
34.1700 81.0000 1.0000
34.1800 78.0000 1.0000
34.1900 82.0000 1.0000
34.2000 100.0000 1.0000
34.2100 91.0000 1.0000
34.2200 91.0000 1.0000
34.2300 85.0000 1.0000
34.2400 103.0000 1.0000
34.2500 91.0000 1.0000
34.2600 81.0000 1.0000
34.2700 80.0000 1.0000
34.2800 93.0000 1.0000
34.2900 75.0000 1.0000
34.3000 87.0000 1.0000
34.3100 90.0000 1.0000
34.3200 102.0000 1.0000
34.3300 94.0000 1.0000
34.3400 85.0000 1.0000
34.3500 92.0000 1.0000
34.3600 82.0000 1.0000
34.3700 87.0000 1.0000
34.3800 105.0000 1.0000
34.3900 86.0000 1.0000
34.4000 87.0000 1.0000
34.4100 90.0000 1.0000
34.4200 84.0000 1.0000
34.4300 91.0000 1.0000
34.4400 69.0000 1.0000
34.4500 87.0000 1.0000
34.4600 76.0000 1.0000
34.4700 87.0000 1.0000
34.4800 81.0000 1.0000
34.4900 92.0000 1.0000
34.5000 96.0000 1.0000
34.5100 79.0000 1.0000
34.5200 95.0000 1.0000
34.5300 89.0000 1.0000
34.5400 93.0000 1.0000
34.5500 93.0000 1.0000
34.5600 83.0000 1.0000
34.5700 100.0000 1.0000
34.5800 81.0000 1.0000
34.5900 77.0000 1.0000
34.6000 73.0000 1.0000
34.6100 81.0000 1.0000
34.6200 100.0000 1.0000
34.6300 96.0000 1.0000
34.6400 75.0000 1.0000
34.6500 77.0000 1.0000
34.6600 87.0000 1.0000
34.6700 92.0000 1.0000
34.6800 67.0000 1.0000
34.6900 106.0000 1.0000
34.7000 83.0000 1.0000
34.7100 76.0000 1.0000
34.7200 78.0000 1.0000
34.7300 73.0000 1.0000
34.7400 86.0000 1.0000
34.7500 97.0000 1.0000
34.7600 76.0000 1.0000
34.7700 88.0000 1.0000
34.7800 88.0000 1.0000
34.7900 85.0000 1.0000
34.8000 101.0000 1.0000
34.8100 90.0000 1.0000
34.8200 73.0000 1.0000
34.8300 86.0000 1.0000
34.8400 85.0000 1.0000
34.8500 72.0000 1.0000
34.8600 77.0000 1.0000
34.8700 77.0000 1.0000
34.8800 95.0000 1.0000
34.8900 76.0000 1.0000
34.9000 77.0000 1.0000
34.9100 93.0000 1.0000
34.9200 100.0000 1.0000
34.9300 66.0000 1.0000
34.9400 96.0000 1.0000
34.9500 76.0000 1.0000
34.9600 101.0000 1.0000
34.9700 69.0000 1.0000
34.9800 104.0000 1.0000
34.9900 89.0000 1.0000
35.0000 89.0000 1.0000
35.0100 79.0000 1.0000
35.0200 78.0000 1.0000
35.0300 105.0000 1.0000
35.0400 92.0000 1.0000
35.0500 90.0000 1.0000
35.0600 82.0000 1.0000
35.0700 91.0000 1.0000
35.0800 91.0000 1.0000
35.0900 99.0000 1.0000
35.1000 86.0000 1.0000
35.1100 90.0000 1.0000
35.1200 74.0000 1.0000
35.1300 98.0000 1.0000
35.1400 91.0000 1.0000
35.1500 92.0000 1.0000
35.1600 84.0000 1.0000
35.1700 101.0000 1.0000
35.1800 96.0000 1.0000
35.1900 93.0000 1.0000
35.2000 100.0000 1.0000
35.2100 101.0000 1.0000
35.2200 79.0000 1.0000
35.2300 95.0000 1.0000
35.2400 94.0000 1.0000
35.2500 108.0000 1.0000
35.2600 77.0000 1.0000
35.2700 73.0000 1.0000
35.2800 88.0000 1.0000
35.2900 83.0000 1.0000
35.3000 90.0000 1.0000
35.3100 94.0000 1.0000
35.3200 82.0000 1.0000
35.3300 84.0000 1.0000
35.3400 79.0000 1.0000
35.3500 93.0000 1.0000
35.3600 87.0000 1.0000
35.3700 90.0000 1.0000
35.3800 80.0000 1.0000
35.3900 95.0000 1.0000
35.4000 85.0000 1.0000
35.4100 95.0000 1.0000
35.4200 88.0000 1.0000
35.4300 105.0000 1.0000
35.4400 91.0000 1.0000
35.4500 96.0000 1.0000
35.4600 96.0000 1.0000
35.4700 98.0000 1.0000
35.4800 79.0000 1.0000
35.4900 92.0000 1.0000
35.5000 74.0000 1.0000
35.5100 89.0000 1.0000
35.5200 93.0000 1.0000
35.5300 95.0000 1.0000
35.5400 97.0000 1.0000
35.5500 104.0000 1.0000
35.5600 104.0000 1.0000
35.5700 102.0000 1.0000
35.5800 81.0000 1.0000
35.5900 94.0000 1.0000
35.6000 95.0000 1.0000
35.6100 114.0000 1.0000
35.6200 84.0000 1.0000
35.6300 112.0000 1.0000
35.6400 109.0000 1.0000
35.6500 108.0000 1.0000
35.6600 109.0000 1.0000
35.6700 93.0000 1.0000
35.6800 100.0000 1.0000
35.6900 88.0000 1.0000
35.7000 81.0000 1.0000
35.7100 109.0000 1.0000
35.7200 112.0000 1.0000
35.7300 108.0000 1.0000
35.7400 110.0000 1.0000
35.7500 98.0000 1.0000
35.7600 97.0000 1.0000
35.7700 109.0000 1.0000
35.7800 119.0000 1.0000
35.7900 108.0000 1.0000
35.8000 123.0000 1.0000
35.8100 100.0000 1.0000
35.8200 106.0000 1.0000
35.8300 108.0000 1.0000
35.8400 102.0000 1.0000
35.8500 127.0000 1.0000
35.8600 111.0000 1.0000
35.8700 95.0000 1.0000
35.8800 101.0000 1.0000
35.8900 89.0000 1.0000
35.9000 108.0000 1.0000
35.9100 132.0000 1.0000
35.9200 126.0000 1.0000
35.9300 117.0000 1.0000
35.9400 137.0000 1.0000
35.9500 132.0000 1.0000
35.9600 122.0000 1.0000
35.9700 103.0000 1.0000
35.9800 108.0000 1.0000
35.9900 122.0000 1.0000
36.0000 111.0000 1.0000
36.0100 103.0000 1.0000
36.0200 113.0000 1.0000
36.0300 131.0000 1.0000
36.0400 134.0000 1.0000
36.0500 118.0000 1.0000
36.0600 111.0000 1.0000
36.0700 116.0000 1.0000
36.0800 113.0000 1.0000
36.0900 126.0000 1.0000
36.1000 116.0000 1.0000
36.1100 115.0000 1.0000
36.1200 127.0000 1.0000
36.1300 126.0000 1.0000
36.1400 147.0000 1.0000
36.1500 124.0000 1.0000
36.1600 100.0000 1.0000
36.1700 118.0000 1.0000
36.1800 129.0000 1.0000
36.1900 112.0000 1.0000
36.2000 110.0000 1.0000
36.2100 108.0000 1.0000
36.2200 124.0000 1.0000
36.2300 130.0000 1.0000
36.2400 109.0000 1.0000
36.2500 133.0000 1.0000
36.2600 131.0000 1.0000
36.2700 113.0000 1.0000
36.2800 117.0000 1.0000
36.2900 125.0000 1.0000
36.3000 120.0000 1.0000
36.3100 115.0000 1.0000
36.3200 110.0000 1.0000
36.3300 109.0000 1.0000
36.3400 117.0000 1.0000
36.3500 110.0000 1.0000
36.3600 110.0000 1.0000
36.3700 89.0000 1.0000
36.3800 92.0000 1.0000
36.3900 102.0000 1.0000
36.4000 130.0000 1.0000
36.4100 104.0000 1.0000
36.4200 104.0000 1.0000
36.4300 101.0000 1.0000
36.4400 97.0000 1.0000
36.4500 100.0000 1.0000
36.4600 104.0000 1.0000
36.4700 96.0000 1.0000
36.4800 94.0000 1.0000
36.4900 102.0000 1.0000
36.5000 93.0000 1.0000
36.5100 105.0000 1.0000
36.5200 92.0000 1.0000
36.5300 84.0000 1.0000
36.5400 97.0000 1.0000
36.5500 99.0000 1.0000
36.5600 110.0000 1.0000
36.5700 93.0000 1.0000
36.5800 104.0000 1.0000
36.5900 103.0000 1.0000
36.6000 93.0000 1.0000
36.6100 94.0000 1.0000
36.6200 96.0000 1.0000
36.6300 89.0000 1.0000
36.6400 83.0000 1.0000
36.6500 75.0000 1.0000
36.6600 94.0000 1.0000
36.6700 84.0000 1.0000
36.6800 89.0000 1.0000
36.6900 84.0000 1.0000
36.7000 95.0000 1.0000
36.7100 100.0000 1.0000
36.7200 95.0000 1.0000
36.7300 88.0000 1.0000
36.7400 81.0000 1.0000
36.7500 92.0000 1.0000
36.7600 94.0000 1.0000
36.7700 76.0000 1.0000
36.7800 84.0000 1.0000
36.7900 91.0000 1.0000
36.8000 102.0000 1.0000
36.8100 90.0000 1.0000
36.8200 95.0000 1.0000
36.8300 82.0000 1.0000
36.8400 103.0000 1.0000
36.8500 95.0000 1.0000
36.8600 93.0000 1.0000
36.8700 83.0000 1.0000
36.8800 100.0000 1.0000
36.8900 98.0000 1.0000
36.9000 105.0000 1.0000
36.9100 94.0000 1.0000
36.9200 82.0000 1.0000
36.9300 87.0000 1.0000
36.9400 91.0000 1.0000
36.9500 88.0000 1.0000
36.9600 80.0000 1.0000
36.9700 80.0000 1.0000
36.9800 90.0000 1.0000
36.9900 77.0000 1.0000
37.0000 71.0000 1.0000
37.0100 79.0000 1.0000
37.0200 90.0000 1.0000
37.0300 95.0000 1.0000
37.0400 79.0000 1.0000
37.0500 104.0000 1.0000
37.0600 93.0000 1.0000
37.0700 78.0000 1.0000
37.0800 86.0000 1.0000
37.0900 77.0000 1.0000
37.1000 81.0000 1.0000
37.1100 94.0000 1.0000
37.1200 89.0000 1.0000
37.1300 79.0000 1.0000
37.1400 97.0000 1.0000
37.1500 88.0000 1.0000
37.1600 86.0000 1.0000
37.1700 93.0000 1.0000
37.1800 93.0000 1.0000
37.1900 79.0000 1.0000
37.2000 95.0000 1.0000
37.2100 88.0000 1.0000
37.2200 88.0000 1.0000
37.2300 65.0000 1.0000
37.2400 89.0000 1.0000
37.2500 84.0000 1.0000
37.2600 89.0000 1.0000
37.2700 91.0000 1.0000
37.2800 81.0000 1.0000
37.2900 78.0000 1.0000
37.3000 86.0000 1.0000
37.3100 88.0000 1.0000
37.3200 79.0000 1.0000
37.3300 85.0000 1.0000
37.3400 98.0000 1.0000
37.3500 92.0000 1.0000
37.3600 78.0000 1.0000
37.3700 77.0000 1.0000
37.3800 99.0000 1.0000
37.3900 79.0000 1.0000
37.4000 96.0000 1.0000
37.4100 79.0000 1.0000
37.4200 87.0000 1.0000
37.4300 94.0000 1.0000
37.4400 77.0000 1.0000
37.4500 92.0000 1.0000
37.4600 92.0000 1.0000
37.4700 88.0000 1.0000
37.4800 94.0000 1.0000
37.4900 92.0000 1.0000
37.5000 118.0000 1.0000
37.5100 103.0000 1.0000
37.5200 93.0000 1.0000
37.5300 78.0000 1.0000
37.5400 96.0000 1.0000
37.5500 81.0000 1.0000
37.5600 95.0000 1.0000
37.5700 93.0000 1.0000
37.5800 84.0000 1.0000
37.5900 95.0000 1.0000
37.6000 94.0000 1.0000
37.6100 71.0000 1.0000
37.6200 87.0000 1.0000
37.6300 78.0000 1.0000
37.6400 81.0000 1.0000
37.6500 83.0000 1.0000
37.6600 89.0000 1.0000
37.6700 87.0000 1.0000
37.6800 89.0000 1.0000
37.6900 79.0000 1.0000
37.7000 79.0000 1.0000
37.7100 79.0000 1.0000
37.7200 91.0000 1.0000
37.7300 99.0000 1.0000
37.7400 86.0000 1.0000
37.7500 96.0000 1.0000
37.7600 101.0000 1.0000
37.7700 81.0000 1.0000
37.7800 85.0000 1.0000
37.7900 91.0000 1.0000
37.8000 82.0000 1.0000
37.8100 88.0000 1.0000
37.8200 80.0000 1.0000
37.8300 97.0000 1.0000
37.8400 97.0000 1.0000
37.8500 87.0000 1.0000
37.8600 80.0000 1.0000
37.8700 80.0000 1.0000
37.8800 84.0000 1.0000
37.8900 84.0000 1.0000
37.9000 88.0000 1.0000
37.9100 90.0000 1.0000
37.9200 78.0000 1.0000
37.9300 83.0000 1.0000
37.9400 95.0000 1.0000
37.9500 77.0000 1.0000
37.9600 79.0000 1.0000
37.9700 74.0000 1.0000
37.9800 79.0000 1.0000
37.9900 83.0000 1.0000
38.0000 76.0000 1.0000
38.0100 91.0000 1.0000
38.0200 82.0000 1.0000
38.0300 95.0000 1.0000
38.0400 87.0000 1.0000
38.0500 71.0000 1.0000
38.0600 92.0000 1.0000
38.0700 75.0000 1.0000
38.0800 75.0000 1.0000
38.0900 96.0000 1.0000
38.1000 86.0000 1.0000
38.1100 85.0000 1.0000
38.1200 96.0000 1.0000
38.1300 81.0000 1.0000
38.1400 80.0000 1.0000
38.1500 86.0000 1.0000
38.1600 94.0000 1.0000
38.1700 87.0000 1.0000
38.1800 79.0000 1.0000
38.1900 76.0000 1.0000
38.2000 86.0000 1.0000
38.2100 80.0000 1.0000
38.2200 92.0000 1.0000
38.2300 78.0000 1.0000
38.2400 82.0000 1.0000
38.2500 83.0000 1.0000
38.2600 82.0000 1.0000
38.2700 85.0000 1.0000
38.2800 92.0000 1.0000
38.2900 84.0000 1.0000
38.3000 75.0000 1.0000
38.3100 80.0000 1.0000
38.3200 95.0000 1.0000
38.3300 82.0000 1.0000
38.3400 88.0000 1.0000
38.3500 107.0000 1.0000
38.3600 66.0000 1.0000
38.3700 84.0000 1.0000
38.3800 67.0000 1.0000
38.3900 94.0000 1.0000
38.4000 70.0000 1.0000
38.4100 106.0000 1.0000
38.4200 94.0000 1.0000
38.4300 80.0000 1.0000
38.4400 96.0000 1.0000
38.4500 71.0000 1.0000
38.4600 84.0000 1.0000
38.4700 67.0000 1.0000
38.4800 86.0000 1.0000
38.4900 93.0000 1.0000
38.5000 99.0000 1.0000
38.5100 93.0000 1.0000
38.5200 107.0000 1.0000
38.5300 63.0000 1.0000
38.5400 82.0000 1.0000
38.5500 105.0000 1.0000
38.5600 81.0000 1.0000
38.5700 99.0000 1.0000
38.5800 82.0000 1.0000
38.5900 85.0000 1.0000
38.6000 62.0000 1.0000
38.6100 81.0000 1.0000
38.6200 92.0000 1.0000
38.6300 73.0000 1.0000
38.6400 67.0000 1.0000
38.6500 85.0000 1.0000
38.6600 78.0000 1.0000
38.6700 99.0000 1.0000
38.6800 86.0000 1.0000
38.6900 92.0000 1.0000
38.7000 85.0000 1.0000
38.7100 83.0000 1.0000
38.7200 105.0000 1.0000
38.7300 90.0000 1.0000
38.7400 109.0000 1.0000
38.7500 81.0000 1.0000
38.7600 88.0000 1.0000
38.7700 71.0000 1.0000
38.7800 80.0000 1.0000
38.7900 97.0000 1.0000
38.8000 86.0000 1.0000
38.8100 81.0000 1.0000
38.8200 86.0000 1.0000
38.8300 101.0000 1.0000
38.8400 92.0000 1.0000
38.8500 100.0000 1.0000
38.8600 87.0000 1.0000
38.8700 90.0000 1.0000
38.8800 93.0000 1.0000
38.8900 95.0000 1.0000
38.9000 108.0000 1.0000
38.9100 84.0000 1.0000
38.9200 76.0000 1.0000
38.9300 81.0000 1.0000
38.9400 103.0000 1.0000
38.9500 87.0000 1.0000
38.9600 87.0000 1.0000
38.9700 77.0000 1.0000
38.9800 72.0000 1.0000
38.9900 90.0000 1.0000
39.0000 83.0000 1.0000
39.0100 87.0000 1.0000
39.0200 80.0000 1.0000
39.0300 94.0000 1.0000
39.0400 87.0000 1.0000
39.0500 87.0000 1.0000
39.0600 87.0000 1.0000
39.0700 84.0000 1.0000
39.0800 67.0000 1.0000
39.0900 78.0000 1.0000
39.1000 97.0000 1.0000
39.1100 82.0000 1.0000
39.1200 73.0000 1.0000
39.1300 100.0000 1.0000
39.1400 77.0000 1.0000
39.1500 84.0000 1.0000
39.1600 87.0000 1.0000
39.1700 78.0000 1.0000
39.1800 82.0000 1.0000
39.1900 76.0000 1.0000
39.2000 80.0000 1.0000
39.2100 98.0000 1.0000
39.2200 87.0000 1.0000
39.2300 84.0000 1.0000
39.2400 92.0000 1.0000
39.2500 98.0000 1.0000
39.2600 102.0000 1.0000
39.2700 66.0000 1.0000
39.2800 79.0000 1.0000
39.2900 77.0000 1.0000
39.3000 77.0000 1.0000
39.3100 101.0000 1.0000
39.3200 91.0000 1.0000
39.3300 83.0000 1.0000
39.3400 85.0000 1.0000
39.3500 69.0000 1.0000
39.3600 78.0000 1.0000
39.3700 100.0000 1.0000
39.3800 76.0000 1.0000
39.3900 74.0000 1.0000
39.4000 77.0000 1.0000
39.4100 84.0000 1.0000
39.4200 81.0000 1.0000
39.4300 94.0000 1.0000
39.4400 74.0000 1.0000
39.4500 89.0000 1.0000
39.4600 92.0000 1.0000
39.4700 93.0000 1.0000
39.4800 86.0000 1.0000
39.4900 85.0000 1.0000
39.5000 85.0000 1.0000
39.5100 87.0000 1.0000
39.5200 95.0000 1.0000
39.5300 100.0000 1.0000
39.5400 82.0000 1.0000
39.5500 102.0000 1.0000
39.5600 94.0000 1.0000
39.5700 78.0000 1.0000
39.5800 83.0000 1.0000
39.5900 75.0000 1.0000
39.6000 78.0000 1.0000
39.6100 87.0000 1.0000
39.6200 85.0000 1.0000
39.6300 77.0000 1.0000
39.6400 92.0000 1.0000
39.6500 91.0000 1.0000
39.6600 86.0000 1.0000
39.6700 78.0000 1.0000
39.6800 75.0000 1.0000
39.6900 94.0000 1.0000
39.7000 112.0000 1.0000
39.7100 83.0000 1.0000
39.7200 96.0000 1.0000
39.7300 90.0000 1.0000
39.7400 89.0000 1.0000
39.7500 84.0000 1.0000
39.7600 94.0000 1.0000
39.7700 95.0000 1.0000
39.7800 91.0000 1.0000
39.7900 86.0000 1.0000
39.8000 81.0000 1.0000
39.8100 91.0000 1.0000
39.8200 79.0000 1.0000
39.8300 100.0000 1.0000
39.8400 102.0000 1.0000
39.8500 88.0000 1.0000
39.8600 97.0000 1.0000
39.8700 94.0000 1.0000
39.8800 90.0000 1.0000
39.8900 108.0000 1.0000
39.9000 71.0000 1.0000
39.9100 92.0000 1.0000
39.9200 84.0000 1.0000
39.9300 89.0000 1.0000
39.9400 79.0000 1.0000
39.9500 99.0000 1.0000
39.9600 82.0000 1.0000
39.9700 72.0000 1.0000
39.9800 89.0000 1.0000
39.9900 73.0000 1.0000
40.0000 91.0000 1.0000
40.0100 87.0000 1.0000
40.0200 89.0000 1.0000
40.0300 97.0000 1.0000
40.0400 85.0000 1.0000
40.0500 82.0000 1.0000
40.0600 98.0000 1.0000
40.0700 80.0000 1.0000
40.0800 75.0000 1.0000
40.0900 73.0000 1.0000
40.1000 62.0000 1.0000
40.1100 86.0000 1.0000
40.1200 82.0000 1.0000
40.1300 94.0000 1.0000
40.1400 68.0000 1.0000
40.1500 77.0000 1.0000
40.1600 99.0000 1.0000
40.1700 82.0000 1.0000
40.1800 94.0000 1.0000
40.1900 91.0000 1.0000
40.2000 96.0000 1.0000
40.2100 79.0000 1.0000
40.2200 85.0000 1.0000
40.2300 75.0000 1.0000
40.2400 88.0000 1.0000
40.2500 69.0000 1.0000
40.2600 79.0000 1.0000
40.2700 102.0000 1.0000
40.2800 83.0000 1.0000
40.2900 77.0000 1.0000
40.3000 93.0000 1.0000
40.3100 94.0000 1.0000
40.3200 81.0000 1.0000
40.3300 88.0000 1.0000
40.3400 87.0000 1.0000
40.3500 83.0000 1.0000
40.3600 95.0000 1.0000
40.3700 80.0000 1.0000
40.3800 102.0000 1.0000
40.3900 76.0000 1.0000
40.4000 72.0000 1.0000
40.4100 81.0000 1.0000
40.4200 72.0000 1.0000
40.4300 80.0000 1.0000
40.4400 71.0000 1.0000
40.4500 82.0000 1.0000
40.4600 78.0000 1.0000
40.4700 87.0000 1.0000
40.4800 83.0000 1.0000
40.4900 76.0000 1.0000
40.5000 73.0000 1.0000
40.5100 68.0000 1.0000
40.5200 82.0000 1.0000
40.5300 82.0000 1.0000
40.5400 77.0000 1.0000
40.5500 80.0000 1.0000
40.5600 76.0000 1.0000
40.5700 86.0000 1.0000
40.5800 89.0000 1.0000
40.5900 96.0000 1.0000
40.6000 83.0000 1.0000
40.6100 94.0000 1.0000
40.6200 88.0000 1.0000
40.6300 78.0000 1.0000
40.6400 97.0000 1.0000
40.6500 85.0000 1.0000
40.6600 95.0000 1.0000
40.6700 92.0000 1.0000
40.6800 82.0000 1.0000
40.6900 93.0000 1.0000
40.7000 77.0000 1.0000
40.7100 81.0000 1.0000
40.7200 78.0000 1.0000
40.7300 100.0000 1.0000
40.7400 100.0000 1.0000
40.7500 80.0000 1.0000
40.7600 97.0000 1.0000
40.7700 72.0000 1.0000
40.7800 103.0000 1.0000
40.7900 81.0000 1.0000
40.8000 90.0000 1.0000
40.8100 78.0000 1.0000
40.8200 91.0000 1.0000
40.8300 83.0000 1.0000
40.8400 75.0000 1.0000
40.8500 90.0000 1.0000
40.8600 91.0000 1.0000
40.8700 75.0000 1.0000
40.8800 90.0000 1.0000
40.8900 67.0000 1.0000
40.9000 81.0000 1.0000
40.9100 89.0000 1.0000
40.9200 99.0000 1.0000
40.9300 86.0000 1.0000
40.9400 96.0000 1.0000
40.9500 106.0000 1.0000
40.9600 106.0000 1.0000
40.9700 79.0000 1.0000
40.9800 110.0000 1.0000
40.9900 90.0000 1.0000
41.0000 86.0000 1.0000
41.0100 82.0000 1.0000
41.0200 102.0000 1.0000
41.0300 83.0000 1.0000
41.0400 100.0000 1.0000
41.0500 98.0000 1.0000
41.0600 83.0000 1.0000
41.0700 88.0000 1.0000
41.0800 105.0000 1.0000
41.0900 103.0000 1.0000
41.1000 81.0000 1.0000
41.1100 83.0000 1.0000
41.1200 79.0000 1.0000
41.1300 78.0000 1.0000
41.1400 80.0000 1.0000
41.1500 71.0000 1.0000
41.1600 66.0000 1.0000
41.1700 91.0000 1.0000
41.1800 77.0000 1.0000
41.1900 89.0000 1.0000
41.2000 78.0000 1.0000
41.2100 86.0000 1.0000
41.2200 91.0000 1.0000
41.2300 80.0000 1.0000
41.2400 102.0000 1.0000
41.2500 90.0000 1.0000
41.2600 75.0000 1.0000
41.2700 69.0000 1.0000
41.2800 85.0000 1.0000
41.2900 96.0000 1.0000
41.3000 103.0000 1.0000
41.3100 83.0000 1.0000
41.3200 89.0000 1.0000
41.3300 90.0000 1.0000
41.3400 70.0000 1.0000
41.3500 85.0000 1.0000
41.3600 96.0000 1.0000
41.3700 83.0000 1.0000
41.3800 81.0000 1.0000
41.3900 94.0000 1.0000
41.4000 87.0000 1.0000
41.4100 73.0000 1.0000
41.4200 86.0000 1.0000
41.4300 97.0000 1.0000
41.4400 87.0000 1.0000
41.4500 81.0000 1.0000
41.4600 95.0000 1.0000
41.4700 92.0000 1.0000
41.4800 65.0000 1.0000
41.4900 91.0000 1.0000
41.5000 83.0000 1.0000
41.5100 81.0000 1.0000
41.5200 87.0000 1.0000
41.5300 92.0000 1.0000
41.5400 92.0000 1.0000
41.5500 89.0000 1.0000
41.5600 101.0000 1.0000
41.5700 105.0000 1.0000
41.5800 96.0000 1.0000
41.5900 93.0000 1.0000
41.6000 80.0000 1.0000
41.6100 108.0000 1.0000
41.6200 101.0000 1.0000
41.6300 79.0000 1.0000
41.6400 74.0000 1.0000
41.6500 96.0000 1.0000
41.6600 87.0000 1.0000
41.6700 98.0000 1.0000
41.6800 82.0000 1.0000
41.6900 98.0000 1.0000
41.7000 97.0000 1.0000
41.7100 113.0000 1.0000
41.7200 91.0000 1.0000
41.7300 97.0000 1.0000
41.7400 81.0000 1.0000
41.7500 95.0000 1.0000
41.7600 77.0000 1.0000
41.7700 90.0000 1.0000
41.7800 94.0000 1.0000
41.7900 97.0000 1.0000
41.8000 88.0000 1.0000
41.8100 99.0000 1.0000
41.8200 101.0000 1.0000
41.8300 79.0000 1.0000
41.8400 70.0000 1.0000
41.8500 115.0000 1.0000
41.8600 87.0000 1.0000
41.8700 101.0000 1.0000
41.8800 86.0000 1.0000
41.8900 90.0000 1.0000
41.9000 100.0000 1.0000
41.9100 93.0000 1.0000
41.9200 90.0000 1.0000
41.9300 78.0000 1.0000
41.9400 89.0000 1.0000
41.9500 99.0000 1.0000
41.9600 113.0000 1.0000
41.9700 85.0000 1.0000
41.9800 106.0000 1.0000
41.9900 88.0000 1.0000
42.0000 79.0000 1.0000
42.0100 104.0000 1.0000
42.0200 82.0000 1.0000
42.0300 92.0000 1.0000
42.0400 86.0000 1.0000
42.0500 86.0000 1.0000
42.0600 108.0000 1.0000
42.0700 106.0000 1.0000
42.0800 82.0000 1.0000
42.0900 85.0000 1.0000
42.1000 91.0000 1.0000
42.1100 114.0000 1.0000
42.1200 96.0000 1.0000
42.1300 103.0000 1.0000
42.1400 82.0000 1.0000
42.1500 97.0000 1.0000
42.1600 96.0000 1.0000
42.1700 82.0000 1.0000
42.1800 100.0000 1.0000
42.1900 95.0000 1.0000
42.2000 112.0000 1.0000
42.2100 79.0000 1.0000
42.2200 102.0000 1.0000
42.2300 105.0000 1.0000
42.2400 125.0000 1.0000
42.2500 120.0000 1.0000
42.2600 97.0000 1.0000
42.2700 111.0000 1.0000
42.2800 115.0000 1.0000
42.2900 116.0000 1.0000
42.3000 110.0000 1.0000
42.3100 112.0000 1.0000
42.3200 101.0000 1.0000
42.3300 94.0000 1.0000
42.3400 114.0000 1.0000
42.3500 104.0000 1.0000
42.3600 101.0000 1.0000
42.3700 119.0000 1.0000
42.3800 112.0000 1.0000
42.3900 106.0000 1.0000
42.4000 105.0000 1.0000
42.4100 86.0000 1.0000
42.4200 113.0000 1.0000
42.4300 104.0000 1.0000
42.4400 104.0000 1.0000
42.4500 94.0000 1.0000
42.4600 129.0000 1.0000
42.4700 102.0000 1.0000
42.4800 106.0000 1.0000
42.4900 97.0000 1.0000
42.5000 117.0000 1.0000
42.5100 85.0000 1.0000
42.5200 106.0000 1.0000
42.5300 116.0000 1.0000
42.5400 94.0000 1.0000
42.5500 96.0000 1.0000
42.5600 88.0000 1.0000
42.5700 101.0000 1.0000
42.5800 108.0000 1.0000
42.5900 104.0000 1.0000
42.6000 112.0000 1.0000
42.6100 109.0000 1.0000
42.6200 108.0000 1.0000
42.6300 105.0000 1.0000
42.6400 120.0000 1.0000
42.6500 104.0000 1.0000
42.6600 107.0000 1.0000
42.6700 109.0000 1.0000
42.6800 109.0000 1.0000
42.6900 111.0000 1.0000
42.7000 96.0000 1.0000
42.7100 121.0000 1.0000
42.7200 121.0000 1.0000
42.7300 99.0000 1.0000
42.7400 95.0000 1.0000
42.7500 97.0000 1.0000
42.7600 99.0000 1.0000
42.7700 141.0000 1.0000
42.7800 101.0000 1.0000
42.7900 100.0000 1.0000
42.8000 110.0000 1.0000
42.8100 97.0000 1.0000
42.8200 113.0000 1.0000
42.8300 100.0000 1.0000
42.8400 123.0000 1.0000
42.8500 115.0000 1.0000
42.8600 117.0000 1.0000
42.8700 91.0000 1.0000
42.8800 123.0000 1.0000
42.8900 138.0000 1.0000
42.9000 95.0000 1.0000
42.9100 129.0000 1.0000
42.9200 110.0000 1.0000
42.9300 96.0000 1.0000
42.9400 115.0000 1.0000
42.9500 108.0000 1.0000
42.9600 104.0000 1.0000
42.9700 117.0000 1.0000
42.9800 121.0000 1.0000
42.9900 116.0000 1.0000
43.0000 90.0000 1.0000
43.0100 104.0000 1.0000
43.0200 96.0000 1.0000
43.0300 112.0000 1.0000
43.0400 115.0000 1.0000
43.0500 102.0000 1.0000
43.0600 102.0000 1.0000
43.0700 117.0000 1.0000
43.0800 106.0000 1.0000
43.0900 110.0000 1.0000
43.1000 92.0000 1.0000
43.1100 103.0000 1.0000
43.1200 94.0000 1.0000
43.1300 100.0000 1.0000
43.1400 97.0000 1.0000
43.1500 102.0000 1.0000
43.1600 118.0000 1.0000
43.1700 110.0000 1.0000
43.1800 116.0000 1.0000
43.1900 114.0000 1.0000
43.2000 105.0000 1.0000
43.2100 124.0000 1.0000
43.2200 115.0000 1.0000
43.2300 119.0000 1.0000
43.2400 121.0000 1.0000
43.2500 110.0000 1.0000
43.2600 117.0000 1.0000
43.2700 116.0000 1.0000
43.2800 104.0000 1.0000
43.2900 117.0000 1.0000
43.3000 108.0000 1.0000
43.3100 112.0000 1.0000
43.3200 119.0000 1.0000
43.3300 105.0000 1.0000
43.3400 125.0000 1.0000
43.3500 102.0000 1.0000
43.3600 95.0000 1.0000
43.3700 115.0000 1.0000
43.3800 115.0000 1.0000
43.3900 120.0000 1.0000
43.4000 109.0000 1.0000
43.4100 114.0000 1.0000
43.4200 135.0000 1.0000
43.4300 114.0000 1.0000
43.4400 120.0000 1.0000
43.4500 118.0000 1.0000
43.4600 119.0000 1.0000
43.4700 127.0000 1.0000
43.4800 119.0000 1.0000
43.4900 123.0000 1.0000
43.5000 112.0000 1.0000
43.5100 140.0000 1.0000
43.5200 116.0000 1.0000
43.5300 126.0000 1.0000
43.5400 137.0000 1.0000
43.5500 112.0000 1.0000
43.5600 104.0000 1.0000
43.5700 132.0000 1.0000
43.5800 109.0000 1.0000
43.5900 109.0000 1.0000
43.6000 133.0000 1.0000
43.6100 108.0000 1.0000
43.6200 112.0000 1.0000
43.6300 118.0000 1.0000
43.6400 141.0000 1.0000
43.6500 123.0000 1.0000
43.6600 136.0000 1.0000
43.6700 132.0000 1.0000
43.6800 125.0000 1.0000
43.6900 122.0000 1.0000
43.7000 120.0000 1.0000
43.7100 122.0000 1.0000
43.7200 123.0000 1.0000
43.7300 144.0000 1.0000
43.7400 135.0000 1.0000
43.7500 121.0000 1.0000
43.7600 120.0000 1.0000
43.7700 136.0000 1.0000
43.7800 125.0000 1.0000
43.7900 140.0000 1.0000
43.8000 141.0000 1.0000
43.8100 141.0000 1.0000
43.8200 154.0000 1.0000
43.8300 148.0000 1.0000
43.8400 145.0000 1.0000
43.8500 147.0000 1.0000
43.8600 172.0000 1.0000
43.8700 148.0000 1.0000
43.8800 170.0000 1.0000
43.8900 167.0000 1.0000
43.9000 179.0000 1.0000
43.9100 193.0000 1.0000
43.9200 189.0000 1.0000
43.9300 206.0000 1.0000
43.9400 221.0000 1.0000
43.9500 206.0000 1.0000
43.9600 217.0000 1.0000
43.9700 252.0000 1.0000
43.9800 288.0000 1.0000
43.9900 295.0000 1.0000
44.0000 282.0000 1.0000
44.0100 330.0000 1.0000
44.0200 379.0000 1.0000
44.0300 440.0000 1.0000
44.0400 452.0000 1.0000
44.0500 518.0000 1.0000
44.0600 512.0000 1.0000
44.0700 652.0000 1.0000
44.0800 724.0000 1.0000
44.0900 766.0000 1.0000
44.1000 874.0000 1.0000
44.1100 989.0000 1.0000
44.1200 1111.0000 1.0000
44.1300 1218.0000 1.0000
44.1400 1398.0000 1.0000
44.1500 1403.0000 1.0000
44.1600 1526.0000 1.0000
44.1700 1614.0000 1.0000
44.1800 1695.0000 1.0000
44.1900 1739.0000 1.0000
44.2000 1758.0000 1.0000
44.2100 1822.0000 1.0000
44.2200 1847.0000 1.0000
44.2300 1890.0000 1.0000
44.2400 1876.0000 1.0000
44.2500 2072.0000 1.0000
44.2600 1927.0000 1.0000
44.2700 1983.0000 1.0000
44.2800 1944.0000 1.0000
44.2900 1838.0000 1.0000
44.3000 1866.0000 1.0000
44.3100 1798.0000 1.0000
44.3200 1728.0000 1.0000
44.3300 1646.0000 1.0000
44.3400 1619.0000 1.0000
44.3500 1499.0000 1.0000
44.3600 1488.0000 1.0000
44.3700 1317.0000 1.0000
44.3800 1203.0000 1.0000
44.3900 1154.0000 1.0000
44.4000 1068.0000 1.0000
44.4100 986.0000 1.0000
44.4200 916.0000 1.0000
44.4300 876.0000 1.0000
44.4400 777.0000 1.0000
44.4500 685.0000 1.0000
44.4600 676.0000 1.0000
44.4700 575.0000 1.0000
44.4800 541.0000 1.0000
44.4900 476.0000 1.0000
44.5000 433.0000 1.0000
44.5100 388.0000 1.0000
44.5200 381.0000 1.0000
44.5300 351.0000 1.0000
44.5400 310.0000 1.0000
44.5500 257.0000 1.0000
44.5600 270.0000 1.0000
44.5700 221.0000 1.0000
44.5800 230.0000 1.0000
44.5900 220.0000 1.0000
44.6000 201.0000 1.0000
44.6100 166.0000 1.0000
44.6200 192.0000 1.0000
44.6300 171.0000 1.0000
44.6400 163.0000 1.0000
44.6500 165.0000 1.0000
44.6600 140.0000 1.0000
44.6700 171.0000 1.0000
44.6800 123.0000 1.0000
44.6900 155.0000 1.0000
44.7000 128.0000 1.0000
44.7100 134.0000 1.0000
44.7200 130.0000 1.0000
44.7300 124.0000 1.0000
44.7400 146.0000 1.0000
44.7500 127.0000 1.0000
44.7600 133.0000 1.0000
44.7700 117.0000 1.0000
44.7800 148.0000 1.0000
44.7900 121.0000 1.0000
44.8000 142.0000 1.0000
44.8100 123.0000 1.0000
44.8200 121.0000 1.0000
44.8300 111.0000 1.0000
44.8400 124.0000 1.0000
44.8500 125.0000 1.0000
44.8600 112.0000 1.0000
44.8700 100.0000 1.0000
44.8800 132.0000 1.0000
44.8900 121.0000 1.0000
44.9000 119.0000 1.0000
44.9100 95.0000 1.0000
44.9200 109.0000 1.0000
44.9300 114.0000 1.0000
44.9400 97.0000 1.0000
44.9500 94.0000 1.0000
44.9600 94.0000 1.0000
44.9700 117.0000 1.0000
44.9800 113.0000 1.0000
44.9900 110.0000 1.0000
45.0000 130.0000 1.0000
45.0100 112.0000 1.0000
45.0200 122.0000 1.0000
45.0300 96.0000 1.0000
45.0400 113.0000 1.0000
45.0500 111.0000 1.0000
45.0600 107.0000 1.0000
45.0700 110.0000 1.0000
45.0800 96.0000 1.0000
45.0900 100.0000 1.0000
45.1000 99.0000 1.0000
45.1100 112.0000 1.0000
45.1200 106.0000 1.0000
45.1300 99.0000 1.0000
45.1400 98.0000 1.0000
45.1500 93.0000 1.0000
45.1600 113.0000 1.0000
45.1700 112.0000 1.0000
45.1800 112.0000 1.0000
45.1900 121.0000 1.0000
45.2000 98.0000 1.0000
45.2100 93.0000 1.0000
45.2200 98.0000 1.0000
45.2300 98.0000 1.0000
45.2400 97.0000 1.0000
45.2500 102.0000 1.0000
45.2600 108.0000 1.0000
45.2700 95.0000 1.0000
45.2800 107.0000 1.0000
45.2900 111.0000 1.0000
45.3000 108.0000 1.0000
45.3100 103.0000 1.0000
45.3200 89.0000 1.0000
45.3300 86.0000 1.0000
45.3400 109.0000 1.0000
45.3500 92.0000 1.0000
45.3600 94.0000 1.0000
45.3700 98.0000 1.0000
45.3800 92.0000 1.0000
45.3900 105.0000 1.0000
45.4000 107.0000 1.0000
45.4100 100.0000 1.0000
45.4200 102.0000 1.0000
45.4300 90.0000 1.0000
45.4400 94.0000 1.0000
45.4500 99.0000 1.0000
45.4600 102.0000 1.0000
45.4700 117.0000 1.0000
45.4800 86.0000 1.0000
45.4900 83.0000 1.0000
45.5000 103.0000 1.0000
45.5100 89.0000 1.0000
45.5200 121.0000 1.0000
45.5300 93.0000 1.0000
45.5400 99.0000 1.0000
45.5500 96.0000 1.0000
45.5600 92.0000 1.0000
45.5700 101.0000 1.0000
45.5800 99.0000 1.0000
45.5900 86.0000 1.0000
45.6000 101.0000 1.0000
45.6100 87.0000 1.0000
45.6200 84.0000 1.0000
45.6300 108.0000 1.0000
45.6400 104.0000 1.0000
45.6500 85.0000 1.0000
45.6600 83.0000 1.0000
45.6700 85.0000 1.0000
45.6800 94.0000 1.0000
45.6900 95.0000 1.0000
45.7000 88.0000 1.0000
45.7100 88.0000 1.0000
45.7200 93.0000 1.0000
45.7300 79.0000 1.0000
45.7400 100.0000 1.0000
45.7500 104.0000 1.0000
45.7600 103.0000 1.0000
45.7700 105.0000 1.0000
45.7800 103.0000 1.0000
45.7900 96.0000 1.0000
45.8000 86.0000 1.0000
45.8100 95.0000 1.0000
45.8200 95.0000 1.0000
45.8300 94.0000 1.0000
45.8400 103.0000 1.0000
45.8500 101.0000 1.0000
45.8600 97.0000 1.0000
45.8700 82.0000 1.0000
45.8800 99.0000 1.0000
45.8900 103.0000 1.0000
45.9000 98.0000 1.0000
45.9100 93.0000 1.0000
45.9200 112.0000 1.0000
45.9300 96.0000 1.0000
45.9400 91.0000 1.0000
45.9500 102.0000 1.0000
45.9600 86.0000 1.0000
45.9700 92.0000 1.0000
45.9800 96.0000 1.0000
45.9900 90.0000 1.0000
46.0000 100.0000 1.0000
46.0100 93.0000 1.0000
46.0200 105.0000 1.0000
46.0300 100.0000 1.0000
46.0400 92.0000 1.0000
46.0500 108.0000 1.0000
46.0600 92.0000 1.0000
46.0700 91.0000 1.0000
46.0800 79.0000 1.0000
46.0900 84.0000 1.0000
46.1000 93.0000 1.0000
46.1100 99.0000 1.0000
46.1200 79.0000 1.0000
46.1300 110.0000 1.0000
46.1400 109.0000 1.0000
46.1500 88.0000 1.0000
46.1600 105.0000 1.0000
46.1700 87.0000 1.0000
46.1800 108.0000 1.0000
46.1900 85.0000 1.0000
46.2000 96.0000 1.0000
46.2100 97.0000 1.0000
46.2200 83.0000 1.0000
46.2300 94.0000 1.0000
46.2400 102.0000 1.0000
46.2500 75.0000 1.0000
46.2600 99.0000 1.0000
46.2700 103.0000 1.0000
46.2800 95.0000 1.0000
46.2900 93.0000 1.0000
46.3000 79.0000 1.0000
46.3100 92.0000 1.0000
46.3200 100.0000 1.0000
46.3300 86.0000 1.0000
46.3400 87.0000 1.0000
46.3500 94.0000 1.0000
46.3600 78.0000 1.0000
46.3700 93.0000 1.0000
46.3800 96.0000 1.0000
46.3900 93.0000 1.0000
46.4000 90.0000 1.0000
46.4100 88.0000 1.0000
46.4200 69.0000 1.0000
46.4300 99.0000 1.0000
46.4400 84.0000 1.0000
46.4500 107.0000 1.0000
46.4600 91.0000 1.0000
46.4700 84.0000 1.0000
46.4800 96.0000 1.0000
46.4900 90.0000 1.0000
46.5000 93.0000 1.0000
46.5100 77.0000 1.0000
46.5200 98.0000 1.0000
46.5300 88.0000 1.0000
46.5400 99.0000 1.0000
46.5500 93.0000 1.0000
46.5600 93.0000 1.0000
46.5700 81.0000 1.0000
46.5800 91.0000 1.0000
46.5900 94.0000 1.0000
46.6000 94.0000 1.0000
46.6100 94.0000 1.0000
46.6200 90.0000 1.0000
46.6300 76.0000 1.0000
46.6400 97.0000 1.0000
46.6500 95.0000 1.0000
46.6600 90.0000 1.0000
46.6700 102.0000 1.0000
46.6800 99.0000 1.0000
46.6900 88.0000 1.0000
46.7000 96.0000 1.0000
46.7100 104.0000 1.0000
46.7200 80.0000 1.0000
46.7300 80.0000 1.0000
46.7400 86.0000 1.0000
46.7500 106.0000 1.0000
46.7600 90.0000 1.0000
46.7700 94.0000 1.0000
46.7800 90.0000 1.0000
46.7900 85.0000 1.0000
46.8000 79.0000 1.0000
46.8100 96.0000 1.0000
46.8200 96.0000 1.0000
46.8300 95.0000 1.0000
46.8400 99.0000 1.0000
46.8500 78.0000 1.0000
46.8600 110.0000 1.0000
46.8700 89.0000 1.0000
46.8800 89.0000 1.0000
46.8900 87.0000 1.0000
46.9000 97.0000 1.0000
46.9100 93.0000 1.0000
46.9200 96.0000 1.0000
46.9300 90.0000 1.0000
46.9400 93.0000 1.0000
46.9500 102.0000 1.0000
46.9600 83.0000 1.0000
46.9700 91.0000 1.0000
46.9800 84.0000 1.0000
46.9900 105.0000 1.0000
47.0000 74.0000 1.0000
47.0100 109.0000 1.0000
47.0200 106.0000 1.0000
47.0300 85.0000 1.0000
47.0400 88.0000 1.0000
47.0500 90.0000 1.0000
47.0600 94.0000 1.0000
47.0700 88.0000 1.0000
47.0800 106.0000 1.0000
47.0900 89.0000 1.0000
47.1000 79.0000 1.0000
47.1100 82.0000 1.0000
47.1200 84.0000 1.0000
47.1300 92.0000 1.0000
47.1400 80.0000 1.0000
47.1500 90.0000 1.0000
47.1600 104.0000 1.0000
47.1700 84.0000 1.0000
47.1800 102.0000 1.0000
47.1900 90.0000 1.0000
47.2000 79.0000 1.0000
47.2100 86.0000 1.0000
47.2200 108.0000 1.0000
47.2300 86.0000 1.0000
47.2400 87.0000 1.0000
47.2500 82.0000 1.0000
47.2600 85.0000 1.0000
47.2700 80.0000 1.0000
47.2800 83.0000 1.0000
47.2900 91.0000 1.0000
47.3000 96.0000 1.0000
47.3100 85.0000 1.0000
47.3200 101.0000 1.0000
47.3300 83.0000 1.0000
47.3400 106.0000 1.0000
47.3500 103.0000 1.0000
47.3600 100.0000 1.0000
47.3700 87.0000 1.0000
47.3800 86.0000 1.0000
47.3900 99.0000 1.0000
47.4000 109.0000 1.0000
47.4100 85.0000 1.0000
47.4200 100.0000 1.0000
47.4300 87.0000 1.0000
47.4400 100.0000 1.0000
47.4500 77.0000 1.0000
47.4600 98.0000 1.0000
47.4700 96.0000 1.0000
47.4800 90.0000 1.0000
47.4900 76.0000 1.0000
47.5000 92.0000 1.0000
47.5100 91.0000 1.0000
47.5200 123.0000 1.0000
47.5300 84.0000 1.0000
47.5400 88.0000 1.0000
47.5500 92.0000 1.0000
47.5600 99.0000 1.0000
47.5700 92.0000 1.0000
47.5800 83.0000 1.0000
47.5900 78.0000 1.0000
47.6000 74.0000 1.0000
47.6100 88.0000 1.0000
47.6200 97.0000 1.0000
47.6300 97.0000 1.0000
47.6400 82.0000 1.0000
47.6500 72.0000 1.0000
47.6600 68.0000 1.0000
47.6700 94.0000 1.0000
47.6800 86.0000 1.0000
47.6900 96.0000 1.0000
47.7000 84.0000 1.0000
47.7100 95.0000 1.0000
47.7200 97.0000 1.0000
47.7300 88.0000 1.0000
47.7400 85.0000 1.0000
47.7500 93.0000 1.0000
47.7600 88.0000 1.0000
47.7700 87.0000 1.0000
47.7800 90.0000 1.0000
47.7900 92.0000 1.0000
47.8000 88.0000 1.0000
47.8100 90.0000 1.0000
47.8200 100.0000 1.0000
47.8300 75.0000 1.0000
47.8400 83.0000 1.0000
47.8500 84.0000 1.0000
47.8600 91.0000 1.0000
47.8700 80.0000 1.0000
47.8800 82.0000 1.0000
47.8900 87.0000 1.0000
47.9000 77.0000 1.0000
47.9100 98.0000 1.0000
47.9200 104.0000 1.0000
47.9300 99.0000 1.0000
47.9400 79.0000 1.0000
47.9500 76.0000 1.0000
47.9600 105.0000 1.0000
47.9700 98.0000 1.0000
47.9800 93.0000 1.0000
47.9900 84.0000 1.0000
48.0000 99.0000 1.0000
48.0100 109.0000 1.0000
48.0200 100.0000 1.0000
48.0300 85.0000 1.0000
48.0400 102.0000 1.0000
48.0500 82.0000 1.0000
48.0600 102.0000 1.0000
48.0700 99.0000 1.0000
48.0800 90.0000 1.0000
48.0900 93.0000 1.0000
48.1000 92.0000 1.0000
48.1100 101.0000 1.0000
48.1200 95.0000 1.0000
48.1300 85.0000 1.0000
48.1400 99.0000 1.0000
48.1500 90.0000 1.0000
48.1600 92.0000 1.0000
48.1700 100.0000 1.0000
48.1800 108.0000 1.0000
48.1900 118.0000 1.0000
48.2000 79.0000 1.0000
48.2100 88.0000 1.0000
48.2200 91.0000 1.0000
48.2300 76.0000 1.0000
48.2400 96.0000 1.0000
48.2500 93.0000 1.0000
48.2600 93.0000 1.0000
48.2700 97.0000 1.0000
48.2800 105.0000 1.0000
48.2900 89.0000 1.0000
48.3000 78.0000 1.0000
48.3100 101.0000 1.0000
48.3200 80.0000 1.0000
48.3300 88.0000 1.0000
48.3400 91.0000 1.0000
48.3500 92.0000 1.0000
48.3600 97.0000 1.0000
48.3700 74.0000 1.0000
48.3800 88.0000 1.0000
48.3900 109.0000 1.0000
48.4000 88.0000 1.0000
48.4100 79.0000 1.0000
48.4200 103.0000 1.0000
48.4300 89.0000 1.0000
48.4400 88.0000 1.0000
48.4500 82.0000 1.0000
48.4600 92.0000 1.0000
48.4700 92.0000 1.0000
48.4800 81.0000 1.0000
48.4900 106.0000 1.0000
48.5000 76.0000 1.0000
48.5100 96.0000 1.0000
48.5200 71.0000 1.0000
48.5300 92.0000 1.0000
48.5400 95.0000 1.0000
48.5500 113.0000 1.0000
48.5600 90.0000 1.0000
48.5700 78.0000 1.0000
48.5800 87.0000 1.0000
48.5900 82.0000 1.0000
48.6000 103.0000 1.0000
48.6100 84.0000 1.0000
48.6200 86.0000 1.0000
48.6300 87.0000 1.0000
48.6400 83.0000 1.0000
48.6500 76.0000 1.0000
48.6600 95.0000 1.0000
48.6700 98.0000 1.0000
48.6800 88.0000 1.0000
48.6900 78.0000 1.0000
48.7000 84.0000 1.0000
48.7100 93.0000 1.0000
48.7200 99.0000 1.0000
48.7300 80.0000 1.0000
48.7400 76.0000 1.0000
48.7500 79.0000 1.0000
48.7600 75.0000 1.0000
48.7700 92.0000 1.0000
48.7800 98.0000 1.0000
48.7900 99.0000 1.0000
48.8000 86.0000 1.0000
48.8100 70.0000 1.0000
48.8200 86.0000 1.0000
48.8300 109.0000 1.0000
48.8400 91.0000 1.0000
48.8500 91.0000 1.0000
48.8600 94.0000 1.0000
48.8700 88.0000 1.0000
48.8800 74.0000 1.0000
48.8900 87.0000 1.0000
48.9000 76.0000 1.0000
48.9100 108.0000 1.0000
48.9200 94.0000 1.0000
48.9300 86.0000 1.0000
48.9400 99.0000 1.0000
48.9500 86.0000 1.0000
48.9600 80.0000 1.0000
48.9700 101.0000 1.0000
48.9800 99.0000 1.0000
48.9900 97.0000 1.0000
49.0000 80.0000 1.0000
49.0100 82.0000 1.0000
49.0200 93.0000 1.0000
49.0300 113.0000 1.0000
49.0400 99.0000 1.0000
49.0500 94.0000 1.0000
49.0600 102.0000 1.0000
49.0700 90.0000 1.0000
49.0800 82.0000 1.0000
49.0900 104.0000 1.0000
49.1000 85.0000 1.0000
49.1100 95.0000 1.0000
49.1200 69.0000 1.0000
49.1300 88.0000 1.0000
49.1400 92.0000 1.0000
49.1500 84.0000 1.0000
49.1600 97.0000 1.0000
49.1700 97.0000 1.0000
49.1800 89.0000 1.0000
49.1900 97.0000 1.0000
49.2000 98.0000 1.0000
49.2100 82.0000 1.0000
49.2200 87.0000 1.0000
49.2300 101.0000 1.0000
49.2400 96.0000 1.0000
49.2500 75.0000 1.0000
49.2600 73.0000 1.0000
49.2700 85.0000 1.0000
49.2800 76.0000 1.0000
49.2900 84.0000 1.0000
49.3000 85.0000 1.0000
49.3100 100.0000 1.0000
49.3200 74.0000 1.0000
49.3300 88.0000 1.0000
49.3400 96.0000 1.0000
49.3500 96.0000 1.0000
49.3600 84.0000 1.0000
49.3700 104.0000 1.0000
49.3800 82.0000 1.0000
49.3900 93.0000 1.0000
49.4000 85.0000 1.0000
49.4100 105.0000 1.0000
49.4200 82.0000 1.0000
49.4300 106.0000 1.0000
49.4400 81.0000 1.0000
49.4500 95.0000 1.0000
49.4600 103.0000 1.0000
49.4700 88.0000 1.0000
49.4800 62.0000 1.0000
49.4900 75.0000 1.0000
49.5000 87.0000 1.0000
49.5100 115.0000 1.0000
49.5200 91.0000 1.0000
49.5300 79.0000 1.0000
49.5400 92.0000 1.0000
49.5500 96.0000 1.0000
49.5600 91.0000 1.0000
49.5700 92.0000 1.0000
49.5800 79.0000 1.0000
49.5900 94.0000 1.0000
49.6000 95.0000 1.0000
49.6100 106.0000 1.0000
49.6200 103.0000 1.0000
49.6300 92.0000 1.0000
49.6400 86.0000 1.0000
49.6500 88.0000 1.0000
49.6600 107.0000 1.0000
49.6700 111.0000 1.0000
49.6800 84.0000 1.0000
49.6900 96.0000 1.0000
49.7000 103.0000 1.0000
49.7100 90.0000 1.0000
49.7200 95.0000 1.0000
49.7300 91.0000 1.0000
49.7400 98.0000 1.0000
49.7500 94.0000 1.0000
49.7600 97.0000 1.0000
49.7700 99.0000 1.0000
49.7800 83.0000 1.0000
49.7900 103.0000 1.0000
49.8000 90.0000 1.0000
49.8100 103.0000 1.0000
49.8200 89.0000 1.0000
49.8300 101.0000 1.0000
49.8400 76.0000 1.0000
49.8500 79.0000 1.0000
49.8600 83.0000 1.0000
49.8700 89.0000 1.0000
49.8800 97.0000 1.0000
49.8900 95.0000 1.0000
49.9000 84.0000 1.0000
49.9100 81.0000 1.0000
49.9200 91.0000 1.0000
49.9300 96.0000 1.0000
49.9400 90.0000 1.0000
49.9500 82.0000 1.0000
49.9600 87.0000 1.0000
49.9700 95.0000 1.0000
49.9800 86.0000 1.0000
49.9900 74.0000 1.0000
50.0000 83.0000 1.0000
50.0100 82.0000 1.0000
50.0200 75.0000 1.0000
50.0300 75.0000 1.0000
50.0400 94.0000 1.0000
50.0500 97.0000 1.0000
50.0600 99.0000 1.0000
50.0700 78.0000 1.0000
50.0800 87.0000 1.0000
50.0900 89.0000 1.0000
50.1000 101.0000 1.0000
50.1100 85.0000 1.0000
50.1200 84.0000 1.0000
50.1300 106.0000 1.0000
50.1400 98.0000 1.0000
50.1500 94.0000 1.0000
50.1600 70.0000 1.0000
50.1700 100.0000 1.0000
50.1800 94.0000 1.0000
50.1900 95.0000 1.0000
50.2000 96.0000 1.0000
50.2100 95.0000 1.0000
50.2200 83.0000 1.0000
50.2300 95.0000 1.0000
50.2400 86.0000 1.0000
50.2500 89.0000 1.0000
50.2600 78.0000 1.0000
50.2700 79.0000 1.0000
50.2800 82.0000 1.0000
50.2900 91.0000 1.0000
50.3000 84.0000 1.0000
50.3100 101.0000 1.0000
50.3200 95.0000 1.0000
50.3300 97.0000 1.0000
50.3400 93.0000 1.0000
50.3500 93.0000 1.0000
50.3600 87.0000 1.0000
50.3700 87.0000 1.0000
50.3800 76.0000 1.0000
50.3900 98.0000 1.0000
50.4000 91.0000 1.0000
50.4100 102.0000 1.0000
50.4200 69.0000 1.0000
50.4300 100.0000 1.0000
50.4400 63.0000 1.0000
50.4500 77.0000 1.0000
50.4600 88.0000 1.0000
50.4700 94.0000 1.0000
50.4800 87.0000 1.0000
50.4900 85.0000 1.0000
50.5000 97.0000 1.0000
50.5100 89.0000 1.0000
50.5200 87.0000 1.0000
50.5300 89.0000 1.0000
50.5400 99.0000 1.0000
50.5500 84.0000 1.0000
50.5600 84.0000 1.0000
50.5700 81.0000 1.0000
50.5800 95.0000 1.0000
50.5900 75.0000 1.0000
50.6000 94.0000 1.0000
50.6100 84.0000 1.0000
50.6200 85.0000 1.0000
50.6300 98.0000 1.0000
50.6400 92.0000 1.0000
50.6500 96.0000 1.0000
50.6600 83.0000 1.0000
50.6700 74.0000 1.0000
50.6800 104.0000 1.0000
50.6900 85.0000 1.0000
50.7000 68.0000 1.0000
50.7100 81.0000 1.0000
50.7200 82.0000 1.0000
50.7300 82.0000 1.0000
50.7400 106.0000 1.0000
50.7500 77.0000 1.0000
50.7600 93.0000 1.0000
50.7700 88.0000 1.0000
50.7800 65.0000 1.0000
50.7900 82.0000 1.0000
50.8000 93.0000 1.0000
50.8100 82.0000 1.0000
50.8200 101.0000 1.0000
50.8300 77.0000 1.0000
50.8400 89.0000 1.0000
50.8500 94.0000 1.0000
50.8600 100.0000 1.0000
50.8700 98.0000 1.0000
50.8800 66.0000 1.0000
50.8900 94.0000 1.0000
50.9000 81.0000 1.0000
50.9100 96.0000 1.0000
50.9200 94.0000 1.0000
50.9300 94.0000 1.0000
50.9400 91.0000 1.0000
50.9500 87.0000 1.0000
50.9600 92.0000 1.0000
50.9700 88.0000 1.0000
50.9800 95.0000 1.0000
50.9900 84.0000 1.0000
51.0000 70.0000 1.0000
51.0100 93.0000 1.0000
51.0200 106.0000 1.0000
51.0300 97.0000 1.0000
51.0400 103.0000 1.0000
51.0500 88.0000 1.0000
51.0600 94.0000 1.0000
51.0700 99.0000 1.0000
51.0800 104.0000 1.0000
51.0900 100.0000 1.0000
51.1000 103.0000 1.0000
51.1100 93.0000 1.0000
51.1200 92.0000 1.0000
51.1300 88.0000 1.0000
51.1400 82.0000 1.0000
51.1500 86.0000 1.0000
51.1600 99.0000 1.0000
51.1700 99.0000 1.0000
51.1800 92.0000 1.0000
51.1900 108.0000 1.0000
51.2000 75.0000 1.0000
51.2100 94.0000 1.0000
51.2200 77.0000 1.0000
51.2300 100.0000 1.0000
51.2400 96.0000 1.0000
51.2500 87.0000 1.0000
51.2600 86.0000 1.0000
51.2700 104.0000 1.0000
51.2800 94.0000 1.0000
51.2900 108.0000 1.0000
51.3000 97.0000 1.0000
51.3100 108.0000 1.0000
51.3200 80.0000 1.0000
51.3300 98.0000 1.0000
51.3400 92.0000 1.0000
51.3500 99.0000 1.0000
51.3600 98.0000 1.0000
51.3700 99.0000 1.0000
51.3800 95.0000 1.0000
51.3900 100.0000 1.0000
51.4000 96.0000 1.0000
51.4100 105.0000 1.0000
51.4200 96.0000 1.0000
51.4300 88.0000 1.0000
51.4400 91.0000 1.0000
51.4500 88.0000 1.0000
51.4600 92.0000 1.0000
51.4700 83.0000 1.0000
51.4800 99.0000 1.0000
51.4900 88.0000 1.0000
51.5000 104.0000 1.0000
51.5100 77.0000 1.0000
51.5200 84.0000 1.0000
51.5300 95.0000 1.0000
51.5400 86.0000 1.0000
51.5500 79.0000 1.0000
51.5600 78.0000 1.0000
51.5700 73.0000 1.0000
51.5800 91.0000 1.0000
51.5900 89.0000 1.0000
51.6000 83.0000 1.0000
51.6100 86.0000 1.0000
51.6200 94.0000 1.0000
51.6300 92.0000 1.0000
51.6400 78.0000 1.0000
51.6500 87.0000 1.0000
51.6600 86.0000 1.0000
51.6700 97.0000 1.0000
51.6800 83.0000 1.0000
51.6900 90.0000 1.0000
51.7000 100.0000 1.0000
51.7100 84.0000 1.0000
51.7200 84.0000 1.0000
51.7300 99.0000 1.0000
51.7400 78.0000 1.0000
51.7500 76.0000 1.0000
51.7600 83.0000 1.0000
51.7700 75.0000 1.0000
51.7800 87.0000 1.0000
51.7900 87.0000 1.0000
51.8000 82.0000 1.0000
51.8100 95.0000 1.0000
51.8200 77.0000 1.0000
51.8300 93.0000 1.0000
51.8400 82.0000 1.0000
51.8500 96.0000 1.0000
51.8600 73.0000 1.0000
51.8700 99.0000 1.0000
51.8800 82.0000 1.0000
51.8900 93.0000 1.0000
51.9000 101.0000 1.0000
51.9100 89.0000 1.0000
51.9200 73.0000 1.0000
51.9300 83.0000 1.0000
51.9400 94.0000 1.0000
51.9500 77.0000 1.0000
51.9600 96.0000 1.0000
51.9700 105.0000 1.0000
51.9800 95.0000 1.0000
51.9900 84.0000 1.0000
52.0000 102.0000 1.0000
52.0100 97.0000 1.0000
52.0200 89.0000 1.0000
52.0300 104.0000 1.0000
52.0400 84.0000 1.0000
52.0500 108.0000 1.0000
52.0600 87.0000 1.0000
52.0700 75.0000 1.0000
52.0800 100.0000 1.0000
52.0900 93.0000 1.0000
52.1000 104.0000 1.0000
52.1100 85.0000 1.0000
52.1200 97.0000 1.0000
52.1300 92.0000 1.0000
52.1400 94.0000 1.0000
52.1500 92.0000 1.0000
52.1600 77.0000 1.0000
52.1700 94.0000 1.0000
52.1800 86.0000 1.0000
52.1900 90.0000 1.0000
52.2000 78.0000 1.0000
52.2100 86.0000 1.0000
52.2200 98.0000 1.0000
52.2300 94.0000 1.0000
52.2400 95.0000 1.0000
52.2500 82.0000 1.0000
52.2600 99.0000 1.0000
52.2700 79.0000 1.0000
52.2800 92.0000 1.0000
52.2900 82.0000 1.0000
52.3000 91.0000 1.0000
52.3100 86.0000 1.0000
52.3200 94.0000 1.0000
52.3300 82.0000 1.0000
52.3400 93.0000 1.0000
52.3500 94.0000 1.0000
52.3600 106.0000 1.0000
52.3700 84.0000 1.0000
52.3800 93.0000 1.0000
52.3900 81.0000 1.0000
52.4000 85.0000 1.0000
52.4100 97.0000 1.0000
52.4200 78.0000 1.0000
52.4300 96.0000 1.0000
52.4400 92.0000 1.0000
52.4500 89.0000 1.0000
52.4600 89.0000 1.0000
52.4700 107.0000 1.0000
52.4800 88.0000 1.0000
52.4900 92.0000 1.0000
52.5000 99.0000 1.0000
52.5100 95.0000 1.0000
52.5200 94.0000 1.0000
52.5300 106.0000 1.0000
52.5400 98.0000 1.0000
52.5500 91.0000 1.0000
52.5600 82.0000 1.0000
52.5700 84.0000 1.0000
52.5800 70.0000 1.0000
52.5900 93.0000 1.0000
52.6000 75.0000 1.0000
52.6100 103.0000 1.0000
52.6200 91.0000 1.0000
52.6300 101.0000 1.0000
52.6400 83.0000 1.0000
52.6500 94.0000 1.0000
52.6600 95.0000 1.0000
52.6700 111.0000 1.0000
52.6800 94.0000 1.0000
52.6900 105.0000 1.0000
52.7000 120.0000 1.0000
52.7100 76.0000 1.0000
52.7200 82.0000 1.0000
52.7300 85.0000 1.0000
52.7400 90.0000 1.0000
52.7500 85.0000 1.0000
52.7600 94.0000 1.0000
52.7700 75.0000 1.0000
52.7800 90.0000 1.0000
52.7900 84.0000 1.0000
52.8000 86.0000 1.0000
52.8100 88.0000 1.0000
52.8200 102.0000 1.0000
52.8300 97.0000 1.0000
52.8400 98.0000 1.0000
52.8500 86.0000 1.0000
52.8600 73.0000 1.0000
52.8700 93.0000 1.0000
52.8800 93.0000 1.0000
52.8900 99.0000 1.0000
52.9000 96.0000 1.0000
52.9100 94.0000 1.0000
52.9200 100.0000 1.0000
52.9300 76.0000 1.0000
52.9400 88.0000 1.0000
52.9500 93.0000 1.0000
52.9600 95.0000 1.0000
52.9700 99.0000 1.0000
52.9800 102.0000 1.0000
52.9900 101.0000 1.0000
53.0000 95.0000 1.0000
53.0100 84.0000 1.0000
53.0200 111.0000 1.0000
53.0300 72.0000 1.0000
53.0400 93.0000 1.0000
53.0500 96.0000 1.0000
53.0600 104.0000 1.0000
53.0700 94.0000 1.0000
53.0800 88.0000 1.0000
53.0900 99.0000 1.0000
53.1000 102.0000 1.0000
53.1100 91.0000 1.0000
53.1200 99.0000 1.0000
53.1300 105.0000 1.0000
53.1400 104.0000 1.0000
53.1500 78.0000 1.0000
53.1600 96.0000 1.0000
53.1700 109.0000 1.0000
53.1800 93.0000 1.0000
53.1900 82.0000 1.0000
53.2000 102.0000 1.0000
53.2100 104.0000 1.0000
53.2200 85.0000 1.0000
53.2300 89.0000 1.0000
53.2400 85.0000 1.0000
53.2500 100.0000 1.0000
53.2600 100.0000 1.0000
53.2700 100.0000 1.0000
53.2800 72.0000 1.0000
53.2900 100.0000 1.0000
53.3000 78.0000 1.0000
53.3100 89.0000 1.0000
53.3200 92.0000 1.0000
53.3300 106.0000 1.0000
53.3400 105.0000 1.0000
53.3500 97.0000 1.0000
53.3600 108.0000 1.0000
53.3700 108.0000 1.0000
53.3800 76.0000 1.0000
53.3900 94.0000 1.0000
53.4000 88.0000 1.0000
53.4100 81.0000 1.0000
53.4200 98.0000 1.0000
53.4300 92.0000 1.0000
53.4400 106.0000 1.0000
53.4500 96.0000 1.0000
53.4600 104.0000 1.0000
53.4700 85.0000 1.0000
53.4800 79.0000 1.0000
53.4900 96.0000 1.0000
53.5000 85.0000 1.0000
53.5100 102.0000 1.0000
53.5200 81.0000 1.0000
53.5300 94.0000 1.0000
53.5400 97.0000 1.0000
53.5500 89.0000 1.0000
53.5600 91.0000 1.0000
53.5700 86.0000 1.0000
53.5800 92.0000 1.0000
53.5900 87.0000 1.0000
53.6000 101.0000 1.0000
53.6100 79.0000 1.0000
53.6200 110.0000 1.0000
53.6300 103.0000 1.0000
53.6400 96.0000 1.0000
53.6500 88.0000 1.0000
53.6600 78.0000 1.0000
53.6700 112.0000 1.0000
53.6800 92.0000 1.0000
53.6900 117.0000 1.0000
53.7000 107.0000 1.0000
53.7100 96.0000 1.0000
53.7200 104.0000 1.0000
53.7300 96.0000 1.0000
53.7400 95.0000 1.0000
53.7500 104.0000 1.0000
53.7600 102.0000 1.0000
53.7700 102.0000 1.0000
53.7800 102.0000 1.0000
53.7900 98.0000 1.0000
53.8000 87.0000 1.0000
53.8100 107.0000 1.0000
53.8200 101.0000 1.0000
53.8300 91.0000 1.0000
53.8400 98.0000 1.0000
53.8500 94.0000 1.0000
53.8600 111.0000 1.0000
53.8700 97.0000 1.0000
53.8800 104.0000 1.0000
53.8900 108.0000 1.0000
53.9000 83.0000 1.0000
53.9100 100.0000 1.0000
53.9200 97.0000 1.0000
53.9300 112.0000 1.0000
53.9400 101.0000 1.0000
53.9500 120.0000 1.0000
53.9600 102.0000 1.0000
53.9700 93.0000 1.0000
53.9800 101.0000 1.0000
53.9900 96.0000 1.0000
54.0000 93.0000 1.0000
54.0100 101.0000 1.0000
54.0200 100.0000 1.0000
54.0300 81.0000 1.0000
54.0400 74.0000 1.0000
54.0500 93.0000 1.0000
54.0600 115.0000 1.0000
54.0700 85.0000 1.0000
54.0800 113.0000 1.0000
54.0900 89.0000 1.0000
54.1000 91.0000 1.0000
54.1100 90.0000 1.0000
54.1200 86.0000 1.0000
54.1300 85.0000 1.0000
54.1400 107.0000 1.0000
54.1500 102.0000 1.0000
54.1600 86.0000 1.0000
54.1700 103.0000 1.0000
54.1800 84.0000 1.0000
54.1900 117.0000 1.0000
54.2000 104.0000 1.0000
54.2100 103.0000 1.0000
54.2200 101.0000 1.0000
54.2300 94.0000 1.0000
54.2400 84.0000 1.0000
54.2500 102.0000 1.0000
54.2600 90.0000 1.0000
54.2700 94.0000 1.0000
54.2800 121.0000 1.0000
54.2900 96.0000 1.0000
54.3000 86.0000 1.0000
54.3100 74.0000 1.0000
54.3200 94.0000 1.0000
54.3300 88.0000 1.0000
54.3400 71.0000 1.0000
54.3500 79.0000 1.0000
54.3600 105.0000 1.0000
54.3700 101.0000 1.0000
54.3800 100.0000 1.0000
54.3900 116.0000 1.0000
54.4000 102.0000 1.0000
54.4100 84.0000 1.0000
54.4200 103.0000 1.0000
54.4300 86.0000 1.0000
54.4400 105.0000 1.0000
54.4500 96.0000 1.0000
54.4600 93.0000 1.0000
54.4700 109.0000 1.0000
54.4800 87.0000 1.0000
54.4900 95.0000 1.0000
54.5000 93.0000 1.0000
54.5100 109.0000 1.0000
54.5200 93.0000 1.0000
54.5300 107.0000 1.0000
54.5400 105.0000 1.0000
54.5500 81.0000 1.0000
54.5600 97.0000 1.0000
54.5700 91.0000 1.0000
54.5800 133.0000 1.0000
54.5900 98.0000 1.0000
54.6000 86.0000 1.0000
54.6100 100.0000 1.0000
54.6200 85.0000 1.0000
54.6300 93.0000 1.0000
54.6400 96.0000 1.0000
54.6500 93.0000 1.0000
54.6600 86.0000 1.0000
54.6700 93.0000 1.0000
54.6800 70.0000 1.0000
54.6900 96.0000 1.0000
54.7000 103.0000 1.0000
54.7100 102.0000 1.0000
54.7200 92.0000 1.0000
54.7300 97.0000 1.0000
54.7400 94.0000 1.0000
54.7500 96.0000 1.0000
54.7600 81.0000 1.0000
54.7700 94.0000 1.0000
54.7800 103.0000 1.0000
54.7900 89.0000 1.0000
54.8000 75.0000 1.0000
54.8100 102.0000 1.0000
54.8200 83.0000 1.0000
54.8300 72.0000 1.0000
54.8400 98.0000 1.0000
54.8500 102.0000 1.0000
54.8600 95.0000 1.0000
54.8700 91.0000 1.0000
54.8800 104.0000 1.0000
54.8900 101.0000 1.0000
54.9000 93.0000 1.0000
54.9100 86.0000 1.0000
54.9200 100.0000 1.0000
54.9300 97.0000 1.0000
54.9400 81.0000 1.0000
54.9500 92.0000 1.0000
54.9600 93.0000 1.0000
54.9700 108.0000 1.0000
54.9800 92.0000 1.0000
54.9900 92.0000 1.0000
55.0000 92.0000 1.0000
55.0100 93.0000 1.0000
55.0200 94.0000 1.0000
55.0300 85.0000 1.0000
55.0400 101.0000 1.0000
55.0500 102.0000 1.0000
55.0600 83.0000 1.0000
55.0700 82.0000 1.0000
55.0800 93.0000 1.0000
55.0900 108.0000 1.0000
55.1000 91.0000 1.0000
55.1100 98.0000 1.0000
55.1200 108.0000 1.0000
55.1300 74.0000 1.0000
55.1400 102.0000 1.0000
55.1500 81.0000 1.0000
55.1600 88.0000 1.0000
55.1700 93.0000 1.0000
55.1800 99.0000 1.0000
55.1900 88.0000 1.0000
55.2000 103.0000 1.0000
55.2100 94.0000 1.0000
55.2200 97.0000 1.0000
55.2300 85.0000 1.0000
55.2400 97.0000 1.0000
55.2500 74.0000 1.0000
55.2600 83.0000 1.0000
55.2700 90.0000 1.0000
55.2800 80.0000 1.0000
55.2900 76.0000 1.0000
55.3000 82.0000 1.0000
55.3100 79.0000 1.0000
55.3200 87.0000 1.0000
55.3300 97.0000 1.0000
55.3400 76.0000 1.0000
55.3500 105.0000 1.0000
55.3600 78.0000 1.0000
55.3700 95.0000 1.0000
55.3800 84.0000 1.0000
55.3900 78.0000 1.0000
55.4000 88.0000 1.0000
55.4100 98.0000 1.0000
55.4200 95.0000 1.0000
55.4300 86.0000 1.0000
55.4400 82.0000 1.0000
55.4500 87.0000 1.0000
55.4600 88.0000 1.0000
55.4700 75.0000 1.0000
55.4800 83.0000 1.0000
55.4900 100.0000 1.0000
55.5000 89.0000 1.0000
55.5100 84.0000 1.0000
55.5200 83.0000 1.0000
55.5300 71.0000 1.0000
55.5400 81.0000 1.0000
55.5500 85.0000 1.0000
55.5600 89.0000 1.0000
55.5700 83.0000 1.0000
55.5800 84.0000 1.0000
55.5900 90.0000 1.0000
55.6000 101.0000 1.0000
55.6100 77.0000 1.0000
55.6200 80.0000 1.0000
55.6300 86.0000 1.0000
55.6400 96.0000 1.0000
55.6500 63.0000 1.0000
55.6600 90.0000 1.0000
55.6700 89.0000 1.0000
55.6800 105.0000 1.0000
55.6900 103.0000 1.0000
55.7000 97.0000 1.0000
55.7100 96.0000 1.0000
55.7200 89.0000 1.0000
55.7300 86.0000 1.0000
55.7400 100.0000 1.0000
55.7500 77.0000 1.0000
55.7600 88.0000 1.0000
55.7700 100.0000 1.0000
55.7800 105.0000 1.0000
55.7900 102.0000 1.0000
55.8000 94.0000 1.0000
55.8100 90.0000 1.0000
55.8200 112.0000 1.0000
55.8300 104.0000 1.0000
55.8400 90.0000 1.0000
55.8500 89.0000 1.0000
55.8600 93.0000 1.0000
55.8700 79.0000 1.0000
55.8800 80.0000 1.0000
55.8900 81.0000 1.0000
55.9000 78.0000 1.0000
55.9100 93.0000 1.0000
55.9200 95.0000 1.0000
55.9300 77.0000 1.0000
55.9400 90.0000 1.0000
55.9500 79.0000 1.0000
55.9600 90.0000 1.0000
55.9700 105.0000 1.0000
55.9800 108.0000 1.0000
55.9900 79.0000 1.0000
56.0000 94.0000 1.0000
56.0100 85.0000 1.0000
56.0200 83.0000 1.0000
56.0300 82.0000 1.0000
56.0400 96.0000 1.0000
56.0500 81.0000 1.0000
56.0600 106.0000 1.0000
56.0700 78.0000 1.0000
56.0800 95.0000 1.0000
56.0900 82.0000 1.0000
56.1000 99.0000 1.0000
56.1100 82.0000 1.0000
56.1200 84.0000 1.0000
56.1300 75.0000 1.0000
56.1400 92.0000 1.0000
56.1500 81.0000 1.0000
56.1600 92.0000 1.0000
56.1700 95.0000 1.0000
56.1800 96.0000 1.0000
56.1900 82.0000 1.0000
56.2000 91.0000 1.0000
56.2100 82.0000 1.0000
56.2200 95.0000 1.0000
56.2300 99.0000 1.0000
56.2400 97.0000 1.0000
56.2500 66.0000 1.0000
56.2600 80.0000 1.0000
56.2700 105.0000 1.0000
56.2800 108.0000 1.0000
56.2900 78.0000 1.0000
56.3000 91.0000 1.0000
56.3100 93.0000 1.0000
56.3200 85.0000 1.0000
56.3300 83.0000 1.0000
56.3400 92.0000 1.0000
56.3500 97.0000 1.0000
56.3600 92.0000 1.0000
56.3700 89.0000 1.0000
56.3800 82.0000 1.0000
56.3900 87.0000 1.0000
56.4000 85.0000 1.0000
56.4100 89.0000 1.0000
56.4200 99.0000 1.0000
56.4300 80.0000 1.0000
56.4400 96.0000 1.0000
56.4500 102.0000 1.0000
56.4600 92.0000 1.0000
56.4700 93.0000 1.0000
56.4800 73.0000 1.0000
56.4900 90.0000 1.0000
56.5000 110.0000 1.0000
56.5100 71.0000 1.0000
56.5200 76.0000 1.0000
56.5300 91.0000 1.0000
56.5400 82.0000 1.0000
56.5500 104.0000 1.0000
56.5600 103.0000 1.0000
56.5700 87.0000 1.0000
56.5800 89.0000 1.0000
56.5900 85.0000 1.0000
56.6000 81.0000 1.0000
56.6100 93.0000 1.0000
56.6200 84.0000 1.0000
56.6300 107.0000 1.0000
56.6400 81.0000 1.0000
56.6500 94.0000 1.0000
56.6600 97.0000 1.0000
56.6700 82.0000 1.0000
56.6800 99.0000 1.0000
56.6900 95.0000 1.0000
56.7000 81.0000 1.0000
56.7100 92.0000 1.0000
56.7200 90.0000 1.0000
56.7300 103.0000 1.0000
56.7400 95.0000 1.0000
56.7500 93.0000 1.0000
56.7600 100.0000 1.0000
56.7700 90.0000 1.0000
56.7800 96.0000 1.0000
56.7900 99.0000 1.0000
56.8000 102.0000 1.0000
56.8100 79.0000 1.0000
56.8200 97.0000 1.0000
56.8300 83.0000 1.0000
56.8400 81.0000 1.0000
56.8500 83.0000 1.0000
56.8600 100.0000 1.0000
56.8700 99.0000 1.0000
56.8800 82.0000 1.0000
56.8900 104.0000 1.0000
56.9000 98.0000 1.0000
56.9100 81.0000 1.0000
56.9200 86.0000 1.0000
56.9300 89.0000 1.0000
56.9400 90.0000 1.0000
56.9500 71.0000 1.0000
56.9600 107.0000 1.0000
56.9700 83.0000 1.0000
56.9800 90.0000 1.0000
56.9900 102.0000 1.0000
57.0000 93.0000 1.0000
57.0100 108.0000 1.0000
57.0200 93.0000 1.0000
57.0300 83.0000 1.0000
57.0400 105.0000 1.0000
57.0500 80.0000 1.0000
57.0600 91.0000 1.0000
57.0700 87.0000 1.0000
57.0800 99.0000 1.0000
57.0900 92.0000 1.0000
57.1000 106.0000 1.0000
57.1100 86.0000 1.0000
57.1200 86.0000 1.0000
57.1300 84.0000 1.0000
57.1400 111.0000 1.0000
57.1500 95.0000 1.0000
57.1600 81.0000 1.0000
57.1700 86.0000 1.0000
57.1800 83.0000 1.0000
57.1900 84.0000 1.0000
57.2000 88.0000 1.0000
57.2100 88.0000 1.0000
57.2200 89.0000 1.0000
57.2300 92.0000 1.0000
57.2400 129.0000 1.0000
57.2500 85.0000 1.0000
57.2600 85.0000 1.0000
57.2700 95.0000 1.0000
57.2800 76.0000 1.0000
57.2900 93.0000 1.0000
57.3000 92.0000 1.0000
57.3100 89.0000 1.0000
57.3200 111.0000 1.0000
57.3300 90.0000 1.0000
57.3400 92.0000 1.0000
57.3500 96.0000 1.0000
57.3600 88.0000 1.0000
57.3700 110.0000 1.0000
57.3800 100.0000 1.0000
57.3900 87.0000 1.0000
57.4000 104.0000 1.0000
57.4100 75.0000 1.0000
57.4200 86.0000 1.0000
57.4300 108.0000 1.0000
57.4400 101.0000 1.0000
57.4500 91.0000 1.0000
57.4600 91.0000 1.0000
57.4700 92.0000 1.0000
57.4800 88.0000 1.0000
57.4900 108.0000 1.0000
57.5000 82.0000 1.0000
57.5100 88.0000 1.0000
57.5200 92.0000 1.0000
57.5300 91.0000 1.0000
57.5400 96.0000 1.0000
57.5500 104.0000 1.0000
57.5600 104.0000 1.0000
57.5700 97.0000 1.0000
57.5800 104.0000 1.0000
57.5900 90.0000 1.0000
57.6000 90.0000 1.0000
57.6100 83.0000 1.0000
57.6200 68.0000 1.0000
57.6300 89.0000 1.0000
57.6400 100.0000 1.0000
57.6500 103.0000 1.0000
57.6600 82.0000 1.0000
57.6700 89.0000 1.0000
57.6800 89.0000 1.0000
57.6900 89.0000 1.0000
57.7000 88.0000 1.0000
57.7100 88.0000 1.0000
57.7200 93.0000 1.0000
57.7300 96.0000 1.0000
57.7400 91.0000 1.0000
57.7500 101.0000 1.0000
57.7600 80.0000 1.0000
57.7700 90.0000 1.0000
57.7800 106.0000 1.0000
57.7900 100.0000 1.0000
57.8000 107.0000 1.0000
57.8100 100.0000 1.0000
57.8200 102.0000 1.0000
57.8300 95.0000 1.0000
57.8400 90.0000 1.0000
57.8500 102.0000 1.0000
57.8600 91.0000 1.0000
57.8700 72.0000 1.0000
57.8800 82.0000 1.0000
57.8900 96.0000 1.0000
57.9000 73.0000 1.0000
57.9100 79.0000 1.0000
57.9200 88.0000 1.0000
57.9300 108.0000 1.0000
57.9400 86.0000 1.0000
57.9500 91.0000 1.0000
57.9600 66.0000 1.0000
57.9700 73.0000 1.0000
57.9800 95.0000 1.0000
57.9900 87.0000 1.0000
58.0000 97.0000 1.0000
58.0100 78.0000 1.0000
58.0200 86.0000 1.0000
58.0300 98.0000 1.0000
58.0400 88.0000 1.0000
58.0500 93.0000 1.0000
58.0600 72.0000 1.0000
58.0700 87.0000 1.0000
58.0800 97.0000 1.0000
58.0900 88.0000 1.0000
58.1000 94.0000 1.0000
58.1100 84.0000 1.0000
58.1200 82.0000 1.0000
58.1300 81.0000 1.0000
58.1400 112.0000 1.0000
58.1500 92.0000 1.0000
58.1600 87.0000 1.0000
58.1700 89.0000 1.0000
58.1800 90.0000 1.0000
58.1900 103.0000 1.0000
58.2000 90.0000 1.0000
58.2100 75.0000 1.0000
58.2200 105.0000 1.0000
58.2300 89.0000 1.0000
58.2400 93.0000 1.0000
58.2500 82.0000 1.0000
58.2600 98.0000 1.0000
58.2700 84.0000 1.0000
58.2800 81.0000 1.0000
58.2900 95.0000 1.0000
58.3000 95.0000 1.0000
58.3100 87.0000 1.0000
58.3200 98.0000 1.0000
58.3300 89.0000 1.0000
58.3400 71.0000 1.0000
58.3500 94.0000 1.0000
58.3600 84.0000 1.0000
58.3700 87.0000 1.0000
58.3800 89.0000 1.0000
58.3900 86.0000 1.0000
58.4000 84.0000 1.0000
58.4100 96.0000 1.0000
58.4200 95.0000 1.0000
58.4300 86.0000 1.0000
58.4400 95.0000 1.0000
58.4500 91.0000 1.0000
58.4600 90.0000 1.0000
58.4700 86.0000 1.0000
58.4800 76.0000 1.0000
58.4900 96.0000 1.0000
58.5000 96.0000 1.0000
58.5100 78.0000 1.0000
58.5200 101.0000 1.0000
58.5300 107.0000 1.0000
58.5400 78.0000 1.0000
58.5500 95.0000 1.0000
58.5600 101.0000 1.0000
58.5700 105.0000 1.0000
58.5800 102.0000 1.0000
58.5900 97.0000 1.0000
58.6000 84.0000 1.0000
58.6100 80.0000 1.0000
58.6200 90.0000 1.0000
58.6300 92.0000 1.0000
58.6400 103.0000 1.0000
58.6500 102.0000 1.0000
58.6600 91.0000 1.0000
58.6700 87.0000 1.0000
58.6800 86.0000 1.0000
58.6900 85.0000 1.0000
58.7000 98.0000 1.0000
58.7100 80.0000 1.0000
58.7200 89.0000 1.0000
58.7300 83.0000 1.0000
58.7400 86.0000 1.0000
58.7500 85.0000 1.0000
58.7600 84.0000 1.0000
58.7700 93.0000 1.0000
58.7800 89.0000 1.0000
58.7900 113.0000 1.0000
58.8000 96.0000 1.0000
58.8100 82.0000 1.0000
58.8200 93.0000 1.0000
58.8300 86.0000 1.0000
58.8400 74.0000 1.0000
58.8500 100.0000 1.0000
58.8600 98.0000 1.0000
58.8700 98.0000 1.0000
58.8800 82.0000 1.0000
58.8900 90.0000 1.0000
58.9000 70.0000 1.0000
58.9100 95.0000 1.0000
58.9200 92.0000 1.0000
58.9300 99.0000 1.0000
58.9400 102.0000 1.0000
58.9500 84.0000 1.0000
58.9600 77.0000 1.0000
58.9700 92.0000 1.0000
58.9800 108.0000 1.0000
58.9900 86.0000 1.0000
59.0000 96.0000 1.0000
59.0100 94.0000 1.0000
59.0200 87.0000 1.0000
59.0300 78.0000 1.0000
59.0400 102.0000 1.0000
59.0500 81.0000 1.0000
59.0600 99.0000 1.0000
59.0700 112.0000 1.0000
59.0800 86.0000 1.0000
59.0900 87.0000 1.0000
59.1000 84.0000 1.0000
59.1100 89.0000 1.0000
59.1200 76.0000 1.0000
59.1300 78.0000 1.0000
59.1400 88.0000 1.0000
59.1500 86.0000 1.0000
59.1600 95.0000 1.0000
59.1700 87.0000 1.0000
59.1800 88.0000 1.0000
59.1900 84.0000 1.0000
59.2000 87.0000 1.0000
59.2100 98.0000 1.0000
59.2200 86.0000 1.0000
59.2300 92.0000 1.0000
59.2400 100.0000 1.0000
59.2500 95.0000 1.0000
59.2600 83.0000 1.0000
59.2700 86.0000 1.0000
59.2800 76.0000 1.0000
59.2900 82.0000 1.0000
59.3000 84.0000 1.0000
59.3100 91.0000 1.0000
59.3200 84.0000 1.0000
59.3300 112.0000 1.0000
59.3400 93.0000 1.0000
59.3500 78.0000 1.0000
59.3600 83.0000 1.0000
59.3700 90.0000 1.0000
59.3800 95.0000 1.0000
59.3900 88.0000 1.0000
59.4000 84.0000 1.0000
59.4100 102.0000 1.0000
59.4200 88.0000 1.0000
59.4300 101.0000 1.0000
59.4400 99.0000 1.0000
59.4500 90.0000 1.0000
59.4600 101.0000 1.0000
59.4700 96.0000 1.0000
59.4800 74.0000 1.0000
59.4900 72.0000 1.0000
59.5000 70.0000 1.0000
59.5100 87.0000 1.0000
59.5200 72.0000 1.0000
59.5300 82.0000 1.0000
59.5400 85.0000 1.0000
59.5500 89.0000 1.0000
59.5600 94.0000 1.0000
59.5700 96.0000 1.0000
59.5800 73.0000 1.0000
59.5900 89.0000 1.0000
59.6000 86.0000 1.0000
59.6100 111.0000 1.0000
59.6200 91.0000 1.0000
59.6300 96.0000 1.0000
59.6400 117.0000 1.0000
59.6500 87.0000 1.0000
59.6600 81.0000 1.0000
59.6700 98.0000 1.0000
59.6800 90.0000 1.0000
59.6900 93.0000 1.0000
59.7000 90.0000 1.0000
59.7100 96.0000 1.0000
59.7200 99.0000 1.0000
59.7300 85.0000 1.0000
59.7400 91.0000 1.0000
59.7500 100.0000 1.0000
59.7600 78.0000 1.0000
59.7700 98.0000 1.0000
59.7800 83.0000 1.0000
59.7900 88.0000 1.0000
59.8000 94.0000 1.0000
59.8100 116.0000 1.0000
59.8200 101.0000 1.0000
59.8300 87.0000 1.0000
59.8400 87.0000 1.0000
59.8500 83.0000 1.0000
59.8600 96.0000 1.0000
59.8700 101.0000 1.0000
59.8800 97.0000 1.0000
59.8900 106.0000 1.0000
59.9000 106.0000 1.0000
59.9100 98.0000 1.0000
59.9200 89.0000 1.0000
59.9300 103.0000 1.0000
59.9400 100.0000 1.0000
59.9500 74.0000 1.0000
59.9600 76.0000 1.0000
59.9700 91.0000 1.0000
59.9800 81.0000 1.0000
59.9900 92.0000 1.0000
60.0000 93.0000 1.0000
60.0100 87.0000 1.0000
60.0200 97.0000 1.0000
60.0300 81.0000 1.0000
60.0400 104.0000 1.0000
60.0500 87.0000 1.0000
60.0600 101.0000 1.0000
60.0700 76.0000 1.0000
60.0800 93.0000 1.0000
60.0900 99.0000 1.0000
60.1000 98.0000 1.0000
60.1100 101.0000 1.0000
60.1200 105.0000 1.0000
60.1300 88.0000 1.0000
60.1400 107.0000 1.0000
60.1500 73.0000 1.0000
60.1600 75.0000 1.0000
60.1700 85.0000 1.0000
60.1800 80.0000 1.0000
60.1900 95.0000 1.0000
60.2000 101.0000 1.0000
60.2100 79.0000 1.0000
60.2200 95.0000 1.0000
60.2300 100.0000 1.0000
60.2400 87.0000 1.0000
60.2500 103.0000 1.0000
60.2600 89.0000 1.0000
60.2700 123.0000 1.0000
60.2800 78.0000 1.0000
60.2900 87.0000 1.0000
60.3000 95.0000 1.0000
60.3100 88.0000 1.0000
60.3200 100.0000 1.0000
60.3300 77.0000 1.0000
60.3400 103.0000 1.0000
60.3500 101.0000 1.0000
60.3600 93.0000 1.0000
60.3700 99.0000 1.0000
60.3800 94.0000 1.0000
60.3900 98.0000 1.0000
60.4000 100.0000 1.0000
60.4100 88.0000 1.0000
60.4200 79.0000 1.0000
60.4300 91.0000 1.0000
60.4400 80.0000 1.0000
60.4500 83.0000 1.0000
60.4600 87.0000 1.0000
60.4700 96.0000 1.0000
60.4800 83.0000 1.0000
60.4900 85.0000 1.0000
60.5000 99.0000 1.0000
60.5100 93.0000 1.0000
60.5200 83.0000 1.0000
60.5300 101.0000 1.0000
60.5400 73.0000 1.0000
60.5500 91.0000 1.0000
60.5600 78.0000 1.0000
60.5700 70.0000 1.0000
60.5800 94.0000 1.0000
60.5900 82.0000 1.0000
60.6000 90.0000 1.0000
60.6100 77.0000 1.0000
60.6200 87.0000 1.0000
60.6300 90.0000 1.0000
60.6400 102.0000 1.0000
60.6500 97.0000 1.0000
60.6600 70.0000 1.0000
60.6700 101.0000 1.0000
60.6800 101.0000 1.0000
60.6900 101.0000 1.0000
60.7000 85.0000 1.0000
60.7100 85.0000 1.0000
60.7200 98.0000 1.0000
60.7300 96.0000 1.0000
60.7400 99.0000 1.0000
60.7500 94.0000 1.0000
60.7600 83.0000 1.0000
60.7700 84.0000 1.0000
60.7800 91.0000 1.0000
60.7900 95.0000 1.0000
60.8000 106.0000 1.0000
60.8100 92.0000 1.0000
60.8200 96.0000 1.0000
60.8300 87.0000 1.0000
60.8400 97.0000 1.0000
60.8500 87.0000 1.0000
60.8600 94.0000 1.0000
60.8700 94.0000 1.0000
60.8800 95.0000 1.0000
60.8900 90.0000 1.0000
60.9000 102.0000 1.0000
60.9100 84.0000 1.0000
60.9200 85.0000 1.0000
60.9300 83.0000 1.0000
60.9400 99.0000 1.0000
60.9500 92.0000 1.0000
60.9600 90.0000 1.0000
60.9700 106.0000 1.0000
60.9800 83.0000 1.0000
60.9900 96.0000 1.0000
61.0000 79.0000 1.0000
61.0100 89.0000 1.0000
61.0200 96.0000 1.0000
61.0300 86.0000 1.0000
61.0400 109.0000 1.0000
61.0500 102.0000 1.0000
61.0600 80.0000 1.0000
61.0700 100.0000 1.0000
61.0800 84.0000 1.0000
61.0900 108.0000 1.0000
61.1000 91.0000 1.0000
61.1100 88.0000 1.0000
61.1200 93.0000 1.0000
61.1300 88.0000 1.0000
61.1400 102.0000 1.0000
61.1500 90.0000 1.0000
61.1600 110.0000 1.0000
61.1700 99.0000 1.0000
61.1800 94.0000 1.0000
61.1900 107.0000 1.0000
61.2000 95.0000 1.0000
61.2100 87.0000 1.0000
61.2200 85.0000 1.0000
61.2300 101.0000 1.0000
61.2400 103.0000 1.0000
61.2500 83.0000 1.0000
61.2600 78.0000 1.0000
61.2700 91.0000 1.0000
61.2800 81.0000 1.0000
61.2900 89.0000 1.0000
61.3000 94.0000 1.0000
61.3100 100.0000 1.0000
61.3200 98.0000 1.0000
61.3300 83.0000 1.0000
61.3400 96.0000 1.0000
61.3500 93.0000 1.0000
61.3600 95.0000 1.0000
61.3700 98.0000 1.0000
61.3800 82.0000 1.0000
61.3900 101.0000 1.0000
61.4000 90.0000 1.0000
61.4100 91.0000 1.0000
61.4200 93.0000 1.0000
61.4300 101.0000 1.0000
61.4400 103.0000 1.0000
61.4500 98.0000 1.0000
61.4600 96.0000 1.0000
61.4700 85.0000 1.0000
61.4800 97.0000 1.0000
61.4900 85.0000 1.0000
61.5000 84.0000 1.0000
61.5100 90.0000 1.0000
61.5200 86.0000 1.0000
61.5300 92.0000 1.0000
61.5400 86.0000 1.0000
61.5500 116.0000 1.0000
61.5600 111.0000 1.0000
61.5700 84.0000 1.0000
61.5800 94.0000 1.0000
61.5900 90.0000 1.0000
61.6000 83.0000 1.0000
61.6100 90.0000 1.0000
61.6200 102.0000 1.0000
61.6300 97.0000 1.0000
61.6400 97.0000 1.0000
61.6500 102.0000 1.0000
61.6600 83.0000 1.0000
61.6700 113.0000 1.0000
61.6800 90.0000 1.0000
61.6900 85.0000 1.0000
61.7000 112.0000 1.0000
61.7100 85.0000 1.0000
61.7200 113.0000 1.0000
61.7300 74.0000 1.0000
61.7400 101.0000 1.0000
61.7500 87.0000 1.0000
61.7600 81.0000 1.0000
61.7700 102.0000 1.0000
61.7800 81.0000 1.0000
61.7900 106.0000 1.0000
61.8000 91.0000 1.0000
61.8100 112.0000 1.0000
61.8200 84.0000 1.0000
61.8300 84.0000 1.0000
61.8400 88.0000 1.0000
61.8500 80.0000 1.0000
61.8600 95.0000 1.0000
61.8700 91.0000 1.0000
61.8800 79.0000 1.0000
61.8900 93.0000 1.0000
61.9000 94.0000 1.0000
61.9100 93.0000 1.0000
61.9200 85.0000 1.0000
61.9300 113.0000 1.0000
61.9400 84.0000 1.0000
61.9500 90.0000 1.0000
61.9600 102.0000 1.0000
61.9700 83.0000 1.0000
61.9800 97.0000 1.0000
61.9900 115.0000 1.0000
62.0000 83.0000 1.0000
62.0100 97.0000 1.0000
62.0200 91.0000 1.0000
62.0300 82.0000 1.0000
62.0400 93.0000 1.0000
62.0500 94.0000 1.0000
62.0600 82.0000 1.0000
62.0700 100.0000 1.0000
62.0800 90.0000 1.0000
62.0900 85.0000 1.0000
62.1000 79.0000 1.0000
62.1100 101.0000 1.0000
62.1200 95.0000 1.0000
62.1300 87.0000 1.0000
62.1400 93.0000 1.0000
62.1500 85.0000 1.0000
62.1600 107.0000 1.0000
62.1700 94.0000 1.0000
62.1800 86.0000 1.0000
62.1900 84.0000 1.0000
62.2000 84.0000 1.0000
62.2100 104.0000 1.0000
62.2200 107.0000 1.0000
62.2300 97.0000 1.0000
62.2400 104.0000 1.0000
62.2500 91.0000 1.0000
62.2600 102.0000 1.0000
62.2700 76.0000 1.0000
62.2800 82.0000 1.0000
62.2900 105.0000 1.0000
62.3000 88.0000 1.0000
62.3100 90.0000 1.0000
62.3200 84.0000 1.0000
62.3300 90.0000 1.0000
62.3400 92.0000 1.0000
62.3500 102.0000 1.0000
62.3600 88.0000 1.0000
62.3700 77.0000 1.0000
62.3800 105.0000 1.0000
62.3900 100.0000 1.0000
62.4000 88.0000 1.0000
62.4100 93.0000 1.0000
62.4200 102.0000 1.0000
62.4300 111.0000 1.0000
62.4400 81.0000 1.0000
62.4500 96.0000 1.0000
62.4600 90.0000 1.0000
62.4700 114.0000 1.0000
62.4800 69.0000 1.0000
62.4900 91.0000 1.0000
62.5000 95.0000 1.0000
62.5100 99.0000 1.0000
62.5200 79.0000 1.0000
62.5300 81.0000 1.0000
62.5400 87.0000 1.0000
62.5500 90.0000 1.0000
62.5600 100.0000 1.0000
62.5700 86.0000 1.0000
62.5800 95.0000 1.0000
62.5900 84.0000 1.0000
62.6000 100.0000 1.0000
62.6100 98.0000 1.0000
62.6200 93.0000 1.0000
62.6300 94.0000 1.0000
62.6400 87.0000 1.0000
62.6500 89.0000 1.0000
62.6600 75.0000 1.0000
62.6700 89.0000 1.0000
62.6800 106.0000 1.0000
62.6900 99.0000 1.0000
62.7000 83.0000 1.0000
62.7100 91.0000 1.0000
62.7200 101.0000 1.0000
62.7300 110.0000 1.0000
62.7400 78.0000 1.0000
62.7500 81.0000 1.0000
62.7600 100.0000 1.0000
62.7700 85.0000 1.0000
62.7800 97.0000 1.0000
62.7900 89.0000 1.0000
62.8000 110.0000 1.0000
62.8100 76.0000 1.0000
62.8200 77.0000 1.0000
62.8300 88.0000 1.0000
62.8400 80.0000 1.0000
62.8500 81.0000 1.0000
62.8600 75.0000 1.0000
62.8700 87.0000 1.0000
62.8800 97.0000 1.0000
62.8900 97.0000 1.0000
62.9000 88.0000 1.0000
62.9100 85.0000 1.0000
62.9200 71.0000 1.0000
62.9300 82.0000 1.0000
62.9400 97.0000 1.0000
62.9500 103.0000 1.0000
62.9600 86.0000 1.0000
62.9700 95.0000 1.0000
62.9800 88.0000 1.0000
62.9900 104.0000 1.0000
63.0000 79.0000 1.0000
63.0100 101.0000 1.0000
63.0200 92.0000 1.0000
63.0300 87.0000 1.0000
63.0400 89.0000 1.0000
63.0500 89.0000 1.0000
63.0600 94.0000 1.0000
63.0700 94.0000 1.0000
63.0800 84.0000 1.0000
63.0900 98.0000 1.0000
63.1000 88.0000 1.0000
63.1100 83.0000 1.0000
63.1200 96.0000 1.0000
63.1300 77.0000 1.0000
63.1400 80.0000 1.0000
63.1500 81.0000 1.0000
63.1600 85.0000 1.0000
63.1700 111.0000 1.0000
63.1800 92.0000 1.0000
63.1900 115.0000 1.0000
63.2000 107.0000 1.0000
63.2100 90.0000 1.0000
63.2200 108.0000 1.0000
63.2300 85.0000 1.0000
63.2400 100.0000 1.0000
63.2500 92.0000 1.0000
63.2600 87.0000 1.0000
63.2700 82.0000 1.0000
63.2800 91.0000 1.0000
63.2900 98.0000 1.0000
63.3000 96.0000 1.0000
63.3100 75.0000 1.0000
63.3200 87.0000 1.0000
63.3300 95.0000 1.0000
63.3400 90.0000 1.0000
63.3500 116.0000 1.0000
63.3600 98.0000 1.0000
63.3700 85.0000 1.0000
63.3800 94.0000 1.0000
63.3900 102.0000 1.0000
63.4000 101.0000 1.0000
63.4100 99.0000 1.0000
63.4200 99.0000 1.0000
63.4300 81.0000 1.0000
63.4400 94.0000 1.0000
63.4500 101.0000 1.0000
63.4600 84.0000 1.0000
63.4700 95.0000 1.0000
63.4800 89.0000 1.0000
63.4900 95.0000 1.0000
63.5000 93.0000 1.0000
63.5100 81.0000 1.0000
63.5200 89.0000 1.0000
63.5300 75.0000 1.0000
63.5400 92.0000 1.0000
63.5500 89.0000 1.0000
63.5600 101.0000 1.0000
63.5700 92.0000 1.0000
63.5800 96.0000 1.0000
63.5900 99.0000 1.0000
63.6000 100.0000 1.0000
63.6100 93.0000 1.0000
63.6200 94.0000 1.0000
63.6300 91.0000 1.0000
63.6400 82.0000 1.0000
63.6500 101.0000 1.0000
63.6600 83.0000 1.0000
63.6700 87.0000 1.0000
63.6800 87.0000 1.0000
63.6900 102.0000 1.0000
63.7000 99.0000 1.0000
63.7100 89.0000 1.0000
63.7200 74.0000 1.0000
63.7300 93.0000 1.0000
63.7400 94.0000 1.0000
63.7500 101.0000 1.0000
63.7600 96.0000 1.0000
63.7700 91.0000 1.0000
63.7800 87.0000 1.0000
63.7900 90.0000 1.0000
63.8000 87.0000 1.0000
63.8100 88.0000 1.0000
63.8200 110.0000 1.0000
63.8300 94.0000 1.0000
63.8400 82.0000 1.0000
63.8500 99.0000 1.0000
63.8600 75.0000 1.0000
63.8700 96.0000 1.0000
63.8800 86.0000 1.0000
63.8900 103.0000 1.0000
63.9000 100.0000 1.0000
63.9100 89.0000 1.0000
63.9200 91.0000 1.0000
63.9300 96.0000 1.0000
63.9400 86.0000 1.0000
63.9500 87.0000 1.0000
63.9600 102.0000 1.0000
63.9700 97.0000 1.0000
63.9800 106.0000 1.0000
63.9900 76.0000 1.0000
64.0000 69.0000 1.0000
64.0100 112.0000 1.0000
64.0200 96.0000 1.0000
64.0300 94.0000 1.0000
64.0400 82.0000 1.0000
64.0500 97.0000 1.0000
64.0600 112.0000 1.0000
64.0700 93.0000 1.0000
64.0800 102.0000 1.0000
64.0900 101.0000 1.0000
64.1000 103.0000 1.0000
64.1100 89.0000 1.0000
64.1200 91.0000 1.0000
64.1300 125.0000 1.0000
64.1400 89.0000 1.0000
64.1500 108.0000 1.0000
64.1600 89.0000 1.0000
64.1700 89.0000 1.0000
64.1800 107.0000 1.0000
64.1900 89.0000 1.0000
64.2000 93.0000 1.0000
64.2100 102.0000 1.0000
64.2200 90.0000 1.0000
64.2300 85.0000 1.0000
64.2400 95.0000 1.0000
64.2500 90.0000 1.0000
64.2600 89.0000 1.0000
64.2700 98.0000 1.0000
64.2800 87.0000 1.0000
64.2900 88.0000 1.0000
64.3000 110.0000 1.0000
64.3100 99.0000 1.0000
64.3200 94.0000 1.0000
64.3300 99.0000 1.0000
64.3400 108.0000 1.0000
64.3500 99.0000 1.0000
64.3600 110.0000 1.0000
64.3700 101.0000 1.0000
64.3800 97.0000 1.0000
64.3900 115.0000 1.0000
64.4000 109.0000 1.0000
64.4100 102.0000 1.0000
64.4200 108.0000 1.0000
64.4300 92.0000 1.0000
64.4400 88.0000 1.0000
64.4500 131.0000 1.0000
64.4600 117.0000 1.0000
64.4700 128.0000 1.0000
64.4800 99.0000 1.0000
64.4900 109.0000 1.0000
64.5000 105.0000 1.0000
64.5100 101.0000 1.0000
64.5200 101.0000 1.0000
64.5300 118.0000 1.0000
64.5400 110.0000 1.0000
64.5500 107.0000 1.0000
64.5600 113.0000 1.0000
64.5700 114.0000 1.0000
64.5800 101.0000 1.0000
64.5900 121.0000 1.0000
64.6000 117.0000 1.0000
64.6100 94.0000 1.0000
64.6200 111.0000 1.0000
64.6300 90.0000 1.0000
64.6400 98.0000 1.0000
64.6500 115.0000 1.0000
64.6600 110.0000 1.0000
64.6700 121.0000 1.0000
64.6800 101.0000 1.0000
64.6900 108.0000 1.0000
64.7000 111.0000 1.0000
64.7100 109.0000 1.0000
64.7200 99.0000 1.0000
64.7300 106.0000 1.0000
64.7400 91.0000 1.0000
64.7500 109.0000 1.0000
64.7600 106.0000 1.0000
64.7700 95.0000 1.0000
64.7800 94.0000 1.0000
64.7900 89.0000 1.0000
64.8000 103.0000 1.0000
64.8100 91.0000 1.0000
64.8200 105.0000 1.0000
64.8300 100.0000 1.0000
64.8400 98.0000 1.0000
64.8500 113.0000 1.0000
64.8600 111.0000 1.0000
64.8700 93.0000 1.0000
64.8800 110.0000 1.0000
64.8900 112.0000 1.0000
64.9000 104.0000 1.0000
64.9100 87.0000 1.0000
64.9200 94.0000 1.0000
64.9300 109.0000 1.0000
64.9400 97.0000 1.0000
64.9500 95.0000 1.0000
64.9600 103.0000 1.0000
64.9700 81.0000 1.0000
64.9800 98.0000 1.0000
64.9900 83.0000 1.0000
65.0000 100.0000 1.0000
65.0100 105.0000 1.0000
65.0200 101.0000 1.0000
65.0300 100.0000 1.0000
65.0400 87.0000 1.0000
65.0500 88.0000 1.0000
65.0600 101.0000 1.0000
65.0700 103.0000 1.0000
65.0800 84.0000 1.0000
65.0900 103.0000 1.0000
65.1000 85.0000 1.0000
65.1100 99.0000 1.0000
65.1200 94.0000 1.0000
65.1300 93.0000 1.0000
65.1400 85.0000 1.0000
65.1500 99.0000 1.0000
65.1600 89.0000 1.0000
65.1700 91.0000 1.0000
65.1800 89.0000 1.0000
65.1900 104.0000 1.0000
65.2000 82.0000 1.0000
65.2100 71.0000 1.0000
65.2200 86.0000 1.0000
65.2300 110.0000 1.0000
65.2400 93.0000 1.0000
65.2500 95.0000 1.0000
65.2600 97.0000 1.0000
65.2700 103.0000 1.0000
65.2800 94.0000 1.0000
65.2900 88.0000 1.0000
65.3000 98.0000 1.0000
65.3100 102.0000 1.0000
65.3200 96.0000 1.0000
65.3300 82.0000 1.0000
65.3400 100.0000 1.0000
65.3500 102.0000 1.0000
65.3600 93.0000 1.0000
65.3700 105.0000 1.0000
65.3800 97.0000 1.0000
65.3900 103.0000 1.0000
65.4000 84.0000 1.0000
65.4100 107.0000 1.0000
65.4200 96.0000 1.0000
65.4300 78.0000 1.0000
65.4400 77.0000 1.0000
65.4500 87.0000 1.0000
65.4600 94.0000 1.0000
65.4700 86.0000 1.0000
65.4800 88.0000 1.0000
65.4900 97.0000 1.0000
65.5000 92.0000 1.0000
65.5100 92.0000 1.0000
65.5200 87.0000 1.0000
65.5300 91.0000 1.0000
65.5400 92.0000 1.0000
65.5500 71.0000 1.0000
65.5600 83.0000 1.0000
65.5700 95.0000 1.0000
65.5800 82.0000 1.0000
65.5900 90.0000 1.0000
65.6000 114.0000 1.0000
65.6100 87.0000 1.0000
65.6200 87.0000 1.0000
65.6300 104.0000 1.0000
65.6400 107.0000 1.0000
65.6500 86.0000 1.0000
65.6600 98.0000 1.0000
65.6700 94.0000 1.0000
65.6800 87.0000 1.0000
65.6900 102.0000 1.0000
65.7000 81.0000 1.0000
65.7100 92.0000 1.0000
65.7200 96.0000 1.0000
65.7300 107.0000 1.0000
65.7400 90.0000 1.0000
65.7500 94.0000 1.0000
65.7600 92.0000 1.0000
65.7700 82.0000 1.0000
65.7800 66.0000 1.0000
65.7900 94.0000 1.0000
65.8000 97.0000 1.0000
65.8100 80.0000 1.0000
65.8200 97.0000 1.0000
65.8300 101.0000 1.0000
65.8400 100.0000 1.0000
65.8500 100.0000 1.0000
65.8600 91.0000 1.0000
65.8700 95.0000 1.0000
65.8800 86.0000 1.0000
65.8900 97.0000 1.0000
65.9000 96.0000 1.0000
65.9100 100.0000 1.0000
65.9200 66.0000 1.0000
65.9300 94.0000 1.0000
65.9400 103.0000 1.0000
65.9500 103.0000 1.0000
65.9600 102.0000 1.0000
65.9700 96.0000 1.0000
65.9800 101.0000 1.0000
65.9900 85.0000 1.0000
66.0000 80.0000 1.0000
66.0100 94.0000 1.0000
66.0200 81.0000 1.0000
66.0300 116.0000 1.0000
66.0400 100.0000 1.0000
66.0500 90.0000 1.0000
66.0600 86.0000 1.0000
66.0700 89.0000 1.0000
66.0800 92.0000 1.0000
66.0900 102.0000 1.0000
66.1000 88.0000 1.0000
66.1100 94.0000 1.0000
66.1200 98.0000 1.0000
66.1300 87.0000 1.0000
66.1400 88.0000 1.0000
66.1500 98.0000 1.0000
66.1600 91.0000 1.0000
66.1700 94.0000 1.0000
66.1800 106.0000 1.0000
66.1900 104.0000 1.0000
66.2000 73.0000 1.0000
66.2100 84.0000 1.0000
66.2200 91.0000 1.0000
66.2300 103.0000 1.0000
66.2400 91.0000 1.0000
66.2500 94.0000 1.0000
66.2600 99.0000 1.0000
66.2700 88.0000 1.0000
66.2800 83.0000 1.0000
66.2900 78.0000 1.0000
66.3000 107.0000 1.0000
66.3100 97.0000 1.0000
66.3200 92.0000 1.0000
66.3300 92.0000 1.0000
66.3400 101.0000 1.0000
66.3500 89.0000 1.0000
66.3600 99.0000 1.0000
66.3700 109.0000 1.0000
66.3800 85.0000 1.0000
66.3900 83.0000 1.0000
66.4000 72.0000 1.0000
66.4100 82.0000 1.0000
66.4200 103.0000 1.0000
66.4300 86.0000 1.0000
66.4400 93.0000 1.0000
66.4500 104.0000 1.0000
66.4600 101.0000 1.0000
66.4700 84.0000 1.0000
66.4800 104.0000 1.0000
66.4900 102.0000 1.0000
66.5000 79.0000 1.0000
66.5100 96.0000 1.0000
66.5200 93.0000 1.0000
66.5300 96.0000 1.0000
66.5400 86.0000 1.0000
66.5500 85.0000 1.0000
66.5600 90.0000 1.0000
66.5700 96.0000 1.0000
66.5800 104.0000 1.0000
66.5900 99.0000 1.0000
66.6000 115.0000 1.0000
66.6100 95.0000 1.0000
66.6200 105.0000 1.0000
66.6300 95.0000 1.0000
66.6400 84.0000 1.0000
66.6500 86.0000 1.0000
66.6600 95.0000 1.0000
66.6700 87.0000 1.0000
66.6800 96.0000 1.0000
66.6900 95.0000 1.0000
66.7000 87.0000 1.0000
66.7100 96.0000 1.0000
66.7200 86.0000 1.0000
66.7300 107.0000 1.0000
66.7400 88.0000 1.0000
66.7500 112.0000 1.0000
66.7600 70.0000 1.0000
66.7700 84.0000 1.0000
66.7800 113.0000 1.0000
66.7900 99.0000 1.0000
66.8000 70.0000 1.0000
66.8100 85.0000 1.0000
66.8200 85.0000 1.0000
66.8300 83.0000 1.0000
66.8400 113.0000 1.0000
66.8500 91.0000 1.0000
66.8600 86.0000 1.0000
66.8700 90.0000 1.0000
66.8800 71.0000 1.0000
66.8900 100.0000 1.0000
66.9000 82.0000 1.0000
66.9100 96.0000 1.0000
66.9200 87.0000 1.0000
66.9300 92.0000 1.0000
66.9400 91.0000 1.0000
66.9500 106.0000 1.0000
66.9600 95.0000 1.0000
66.9700 88.0000 1.0000
66.9800 88.0000 1.0000
66.9900 93.0000 1.0000
67.0000 95.0000 1.0000
67.0100 81.0000 1.0000
67.0200 94.0000 1.0000
67.0300 101.0000 1.0000
67.0400 93.0000 1.0000
67.0500 106.0000 1.0000
67.0600 100.0000 1.0000
67.0700 83.0000 1.0000
67.0800 100.0000 1.0000
67.0900 98.0000 1.0000
67.1000 94.0000 1.0000
67.1100 88.0000 1.0000
67.1200 88.0000 1.0000
67.1300 92.0000 1.0000
67.1400 93.0000 1.0000
67.1500 85.0000 1.0000
67.1600 85.0000 1.0000
67.1700 99.0000 1.0000
67.1800 92.0000 1.0000
67.1900 86.0000 1.0000
67.2000 94.0000 1.0000
67.2100 108.0000 1.0000
67.2200 79.0000 1.0000
67.2300 105.0000 1.0000
67.2400 91.0000 1.0000
67.2500 91.0000 1.0000
67.2600 97.0000 1.0000
67.2700 82.0000 1.0000
67.2800 91.0000 1.0000
67.2900 93.0000 1.0000
67.3000 96.0000 1.0000
67.3100 89.0000 1.0000
67.3200 87.0000 1.0000
67.3300 100.0000 1.0000
67.3400 106.0000 1.0000
67.3500 92.0000 1.0000
67.3600 89.0000 1.0000
67.3700 106.0000 1.0000
67.3800 107.0000 1.0000
67.3900 93.0000 1.0000
67.4000 89.0000 1.0000
67.4100 96.0000 1.0000
67.4200 88.0000 1.0000
67.4300 99.0000 1.0000
67.4400 95.0000 1.0000
67.4500 94.0000 1.0000
67.4600 92.0000 1.0000
67.4700 96.0000 1.0000
67.4800 86.0000 1.0000
67.4900 103.0000 1.0000
67.5000 85.0000 1.0000
67.5100 96.0000 1.0000
67.5200 70.0000 1.0000
67.5300 110.0000 1.0000
67.5400 87.0000 1.0000
67.5500 102.0000 1.0000
67.5600 89.0000 1.0000
67.5700 74.0000 1.0000
67.5800 119.0000 1.0000
67.5900 88.0000 1.0000
67.6000 91.0000 1.0000
67.6100 97.0000 1.0000
67.6200 93.0000 1.0000
67.6300 103.0000 1.0000
67.6400 83.0000 1.0000
67.6500 119.0000 1.0000
67.6600 89.0000 1.0000
67.6700 77.0000 1.0000
67.6800 103.0000 1.0000
67.6900 94.0000 1.0000
67.7000 91.0000 1.0000
67.7100 115.0000 1.0000
67.7200 102.0000 1.0000
67.7300 87.0000 1.0000
67.7400 80.0000 1.0000
67.7500 117.0000 1.0000
67.7600 103.0000 1.0000
67.7700 96.0000 1.0000
67.7800 97.0000 1.0000
67.7900 87.0000 1.0000
67.8000 86.0000 1.0000
67.8100 87.0000 1.0000
67.8200 87.0000 1.0000
67.8300 93.0000 1.0000
67.8400 104.0000 1.0000
67.8500 82.0000 1.0000
67.8600 84.0000 1.0000
67.8700 89.0000 1.0000
67.8800 87.0000 1.0000
67.8900 103.0000 1.0000
67.9000 82.0000 1.0000
67.9100 98.0000 1.0000
67.9200 107.0000 1.0000
67.9300 98.0000 1.0000
67.9400 87.0000 1.0000
67.9500 82.0000 1.0000
67.9600 100.0000 1.0000
67.9700 78.0000 1.0000
67.9800 93.0000 1.0000
67.9900 105.0000 1.0000
68.0000 90.0000 1.0000
68.0100 86.0000 1.0000
68.0200 124.0000 1.0000
68.0300 98.0000 1.0000
68.0400 67.0000 1.0000
68.0500 95.0000 1.0000
68.0600 94.0000 1.0000
68.0700 90.0000 1.0000
68.0800 99.0000 1.0000
68.0900 103.0000 1.0000
68.1000 89.0000 1.0000
68.1100 103.0000 1.0000
68.1200 77.0000 1.0000
68.1300 103.0000 1.0000
68.1400 84.0000 1.0000
68.1500 85.0000 1.0000
68.1600 76.0000 1.0000
68.1700 85.0000 1.0000
68.1800 91.0000 1.0000
68.1900 97.0000 1.0000
68.2000 93.0000 1.0000
68.2100 88.0000 1.0000
68.2200 84.0000 1.0000
68.2300 87.0000 1.0000
68.2400 95.0000 1.0000
68.2500 96.0000 1.0000
68.2600 96.0000 1.0000
68.2700 102.0000 1.0000
68.2800 88.0000 1.0000
68.2900 80.0000 1.0000
68.3000 98.0000 1.0000
68.3100 108.0000 1.0000
68.3200 99.0000 1.0000
68.3300 93.0000 1.0000
68.3400 89.0000 1.0000
68.3500 93.0000 1.0000
68.3600 96.0000 1.0000
68.3700 81.0000 1.0000
68.3800 82.0000 1.0000
68.3900 91.0000 1.0000
68.4000 101.0000 1.0000
68.4100 97.0000 1.0000
68.4200 79.0000 1.0000
68.4300 107.0000 1.0000
68.4400 105.0000 1.0000
68.4500 84.0000 1.0000
68.4600 81.0000 1.0000
68.4700 97.0000 1.0000
68.4800 101.0000 1.0000
68.4900 100.0000 1.0000
68.5000 96.0000 1.0000
68.5100 93.0000 1.0000
68.5200 89.0000 1.0000
68.5300 101.0000 1.0000
68.5400 92.0000 1.0000
68.5500 90.0000 1.0000
68.5600 102.0000 1.0000
68.5700 89.0000 1.0000
68.5800 99.0000 1.0000
68.5900 94.0000 1.0000
68.6000 97.0000 1.0000
68.6100 90.0000 1.0000
68.6200 89.0000 1.0000
68.6300 102.0000 1.0000
68.6400 89.0000 1.0000
68.6500 95.0000 1.0000
68.6600 103.0000 1.0000
68.6700 101.0000 1.0000
68.6800 97.0000 1.0000
68.6900 86.0000 1.0000
68.7000 88.0000 1.0000
68.7100 93.0000 1.0000
68.7200 86.0000 1.0000
68.7300 84.0000 1.0000
68.7400 96.0000 1.0000
68.7500 91.0000 1.0000
68.7600 82.0000 1.0000
68.7700 96.0000 1.0000
68.7800 85.0000 1.0000
68.7900 85.0000 1.0000
68.8000 81.0000 1.0000
68.8100 88.0000 1.0000
68.8200 108.0000 1.0000
68.8300 102.0000 1.0000
68.8400 90.0000 1.0000
68.8500 92.0000 1.0000
68.8600 83.0000 1.0000
68.8700 97.0000 1.0000
68.8800 85.0000 1.0000
68.8900 101.0000 1.0000
68.9000 83.0000 1.0000
68.9100 88.0000 1.0000
68.9200 99.0000 1.0000
68.9300 102.0000 1.0000
68.9400 93.0000 1.0000
68.9500 88.0000 1.0000
68.9600 86.0000 1.0000
68.9700 96.0000 1.0000
68.9800 89.0000 1.0000
68.9900 89.0000 1.0000
69.0000 99.0000 1.0000
69.0100 98.0000 1.0000
69.0200 93.0000 1.0000
69.0300 94.0000 1.0000
69.0400 102.0000 1.0000
69.0500 109.0000 1.0000
69.0600 88.0000 1.0000
69.0700 90.0000 1.0000
69.0800 107.0000 1.0000
69.0900 103.0000 1.0000
69.1000 98.0000 1.0000
69.1100 87.0000 1.0000
69.1200 89.0000 1.0000
69.1300 93.0000 1.0000
69.1400 105.0000 1.0000
69.1500 88.0000 1.0000
69.1600 85.0000 1.0000
69.1700 86.0000 1.0000
69.1800 97.0000 1.0000
69.1900 110.0000 1.0000
69.2000 95.0000 1.0000
69.2100 85.0000 1.0000
69.2200 111.0000 1.0000
69.2300 86.0000 1.0000
69.2400 84.0000 1.0000
69.2500 86.0000 1.0000
69.2600 82.0000 1.0000
69.2700 86.0000 1.0000
69.2800 95.0000 1.0000
69.2900 93.0000 1.0000
69.3000 88.0000 1.0000
69.3100 110.0000 1.0000
69.3200 103.0000 1.0000
69.3300 94.0000 1.0000
69.3400 114.0000 1.0000
69.3500 89.0000 1.0000
69.3600 91.0000 1.0000
69.3700 97.0000 1.0000
69.3800 87.0000 1.0000
69.3900 97.0000 1.0000
69.4000 83.0000 1.0000
69.4100 78.0000 1.0000
69.4200 83.0000 1.0000
69.4300 83.0000 1.0000
69.4400 100.0000 1.0000
69.4500 104.0000 1.0000
69.4600 97.0000 1.0000
69.4700 109.0000 1.0000
69.4800 100.0000 1.0000
69.4900 75.0000 1.0000
69.5000 95.0000 1.0000
69.5100 92.0000 1.0000
69.5200 94.0000 1.0000
69.5300 94.0000 1.0000
69.5400 89.0000 1.0000
69.5500 94.0000 1.0000
69.5600 89.0000 1.0000
69.5700 84.0000 1.0000
69.5800 102.0000 1.0000
69.5900 84.0000 1.0000
69.6000 109.0000 1.0000
69.6100 85.0000 1.0000
69.6200 105.0000 1.0000
69.6300 95.0000 1.0000
69.6400 94.0000 1.0000
69.6500 85.0000 1.0000
69.6600 87.0000 1.0000
69.6700 76.0000 1.0000
69.6800 85.0000 1.0000
69.6900 108.0000 1.0000
69.7000 88.0000 1.0000
69.7100 100.0000 1.0000
69.7200 104.0000 1.0000
69.7300 94.0000 1.0000
69.7400 106.0000 1.0000
69.7500 80.0000 1.0000
69.7600 82.0000 1.0000
69.7700 93.0000 1.0000
69.7800 98.0000 1.0000
69.7900 101.0000 1.0000
69.8000 107.0000 1.0000
69.8100 103.0000 1.0000
69.8200 87.0000 1.0000
69.8300 107.0000 1.0000
69.8400 91.0000 1.0000
69.8500 118.0000 1.0000
69.8600 88.0000 1.0000
69.8700 75.0000 1.0000
69.8800 102.0000 1.0000
69.8900 83.0000 1.0000
69.9000 88.0000 1.0000
69.9100 90.0000 1.0000
69.9200 77.0000 1.0000
69.9300 113.0000 1.0000
69.9400 100.0000 1.0000
69.9500 86.0000 1.0000
69.9600 93.0000 1.0000
69.9700 86.0000 1.0000
69.9800 82.0000 1.0000
69.9900 87.0000 1.0000
70.0000 96.0000 1.0000
70.0100 111.0000 1.0000
70.0200 89.0000 1.0000
70.0300 97.0000 1.0000
70.0400 96.0000 1.0000
70.0500 118.0000 1.0000
70.0600 87.0000 1.0000
70.0700 88.0000 1.0000
70.0800 86.0000 1.0000
70.0900 82.0000 1.0000
70.1000 94.0000 1.0000
70.1100 111.0000 1.0000
70.1200 94.0000 1.0000
70.1300 89.0000 1.0000
70.1400 115.0000 1.0000
70.1500 101.0000 1.0000
70.1600 101.0000 1.0000
70.1700 91.0000 1.0000
70.1800 89.0000 1.0000
70.1900 87.0000 1.0000
70.2000 81.0000 1.0000
70.2100 84.0000 1.0000
70.2200 116.0000 1.0000
70.2300 108.0000 1.0000
70.2400 99.0000 1.0000
70.2500 81.0000 1.0000
70.2600 103.0000 1.0000
70.2700 82.0000 1.0000
70.2800 98.0000 1.0000
70.2900 96.0000 1.0000
70.3000 98.0000 1.0000
70.3100 88.0000 1.0000
70.3200 114.0000 1.0000
70.3300 96.0000 1.0000
70.3400 97.0000 1.0000
70.3500 99.0000 1.0000
70.3600 95.0000 1.0000
70.3700 108.0000 1.0000
70.3800 88.0000 1.0000
70.3900 102.0000 1.0000
70.4000 94.0000 1.0000
70.4100 92.0000 1.0000
70.4200 99.0000 1.0000
70.4300 82.0000 1.0000
70.4400 97.0000 1.0000
70.4500 106.0000 1.0000
70.4600 103.0000 1.0000
70.4700 96.0000 1.0000
70.4800 113.0000 1.0000
70.4900 105.0000 1.0000
70.5000 98.0000 1.0000
70.5100 81.0000 1.0000
70.5200 96.0000 1.0000
70.5300 98.0000 1.0000
70.5400 72.0000 1.0000
70.5500 77.0000 1.0000
70.5600 104.0000 1.0000
70.5700 88.0000 1.0000
70.5800 88.0000 1.0000
70.5900 87.0000 1.0000
70.6000 100.0000 1.0000
70.6100 88.0000 1.0000
70.6200 93.0000 1.0000
70.6300 93.0000 1.0000
70.6400 89.0000 1.0000
70.6500 80.0000 1.0000
70.6600 117.0000 1.0000
70.6700 93.0000 1.0000
70.6800 97.0000 1.0000
70.6900 91.0000 1.0000
70.7000 88.0000 1.0000
70.7100 100.0000 1.0000
70.7200 112.0000 1.0000
70.7300 92.0000 1.0000
70.7400 83.0000 1.0000
70.7500 83.0000 1.0000
70.7600 98.0000 1.0000
70.7700 95.0000 1.0000
70.7800 93.0000 1.0000
70.7900 103.0000 1.0000
70.8000 90.0000 1.0000
70.8100 77.0000 1.0000
70.8200 100.0000 1.0000
70.8300 82.0000 1.0000
70.8400 104.0000 1.0000
70.8500 104.0000 1.0000
70.8600 74.0000 1.0000
70.8700 108.0000 1.0000
70.8800 100.0000 1.0000
70.8900 94.0000 1.0000
70.9000 102.0000 1.0000
70.9100 91.0000 1.0000
70.9200 83.0000 1.0000
70.9300 88.0000 1.0000
70.9400 84.0000 1.0000
70.9500 97.0000 1.0000
70.9600 101.0000 1.0000
70.9700 99.0000 1.0000
70.9800 98.0000 1.0000
70.9900 94.0000 1.0000
71.0000 106.0000 1.0000
71.0100 83.0000 1.0000
71.0200 98.0000 1.0000
71.0300 105.0000 1.0000
71.0400 73.0000 1.0000
71.0500 93.0000 1.0000
71.0600 89.0000 1.0000
71.0700 100.0000 1.0000
71.0800 96.0000 1.0000
71.0900 76.0000 1.0000
71.1000 87.0000 1.0000
71.1100 120.0000 1.0000
71.1200 86.0000 1.0000
71.1300 114.0000 1.0000
71.1400 88.0000 1.0000
71.1500 84.0000 1.0000
71.1600 106.0000 1.0000
71.1700 82.0000 1.0000
71.1800 89.0000 1.0000
71.1900 103.0000 1.0000
71.2000 104.0000 1.0000
71.2100 94.0000 1.0000
71.2200 85.0000 1.0000
71.2300 88.0000 1.0000
71.2400 109.0000 1.0000
71.2500 102.0000 1.0000
71.2600 73.0000 1.0000
71.2700 98.0000 1.0000
71.2800 102.0000 1.0000
71.2900 81.0000 1.0000
71.3000 104.0000 1.0000
71.3100 95.0000 1.0000
71.3200 90.0000 1.0000
71.3300 98.0000 1.0000
71.3400 109.0000 1.0000
71.3500 77.0000 1.0000
71.3600 108.0000 1.0000
71.3700 108.0000 1.0000
71.3800 105.0000 1.0000
71.3900 97.0000 1.0000
71.4000 106.0000 1.0000
71.4100 89.0000 1.0000
71.4200 105.0000 1.0000
71.4300 85.0000 1.0000
71.4400 83.0000 1.0000
71.4500 104.0000 1.0000
71.4600 87.0000 1.0000
71.4700 110.0000 1.0000
71.4800 99.0000 1.0000
71.4900 111.0000 1.0000
71.5000 93.0000 1.0000
71.5100 86.0000 1.0000
71.5200 69.0000 1.0000
71.5300 94.0000 1.0000
71.5400 81.0000 1.0000
71.5500 116.0000 1.0000
71.5600 100.0000 1.0000
71.5700 77.0000 1.0000
71.5800 100.0000 1.0000
71.5900 88.0000 1.0000
71.6000 91.0000 1.0000
71.6100 122.0000 1.0000
71.6200 104.0000 1.0000
71.6300 104.0000 1.0000
71.6400 110.0000 1.0000
71.6500 102.0000 1.0000
71.6600 101.0000 1.0000
71.6700 77.0000 1.0000
71.6800 117.0000 1.0000
71.6900 93.0000 1.0000
71.7000 95.0000 1.0000
71.7100 106.0000 1.0000
71.7200 99.0000 1.0000
71.7300 101.0000 1.0000
71.7400 103.0000 1.0000
71.7500 101.0000 1.0000
71.7600 92.0000 1.0000
71.7700 103.0000 1.0000
71.7800 124.0000 1.0000
71.7900 106.0000 1.0000
71.8000 100.0000 1.0000
71.8100 90.0000 1.0000
71.8200 93.0000 1.0000
71.8300 115.0000 1.0000
71.8400 102.0000 1.0000
71.8500 97.0000 1.0000
71.8600 110.0000 1.0000
71.8700 98.0000 1.0000
71.8800 101.0000 1.0000
71.8900 111.0000 1.0000
71.9000 118.0000 1.0000
71.9100 103.0000 1.0000
71.9200 106.0000 1.0000
71.9300 92.0000 1.0000
71.9400 125.0000 1.0000
71.9500 104.0000 1.0000
71.9600 108.0000 1.0000
71.9700 113.0000 1.0000
71.9800 110.0000 1.0000
71.9900 99.0000 1.0000
72.0000 121.0000 1.0000
72.0100 107.0000 1.0000
72.0200 123.0000 1.0000
72.0300 122.0000 1.0000
72.0400 116.0000 1.0000
72.0500 92.0000 1.0000
72.0600 108.0000 1.0000
72.0700 93.0000 1.0000
72.0800 88.0000 1.0000
72.0900 95.0000 1.0000
72.1000 100.0000 1.0000
72.1100 88.0000 1.0000
72.1200 91.0000 1.0000
72.1300 88.0000 1.0000
72.1400 97.0000 1.0000
72.1500 100.0000 1.0000
72.1600 107.0000 1.0000
72.1700 88.0000 1.0000
72.1800 83.0000 1.0000
72.1900 86.0000 1.0000
72.2000 96.0000 1.0000
72.2100 104.0000 1.0000
72.2200 98.0000 1.0000
72.2300 78.0000 1.0000
72.2400 99.0000 1.0000
72.2500 102.0000 1.0000
72.2600 98.0000 1.0000
72.2700 101.0000 1.0000
72.2800 98.0000 1.0000
72.2900 91.0000 1.0000
72.3000 117.0000 1.0000
72.3100 103.0000 1.0000
72.3200 104.0000 1.0000
72.3300 103.0000 1.0000
72.3400 83.0000 1.0000
72.3500 87.0000 1.0000
72.3600 77.0000 1.0000
72.3700 78.0000 1.0000
72.3800 96.0000 1.0000
72.3900 107.0000 1.0000
72.4000 98.0000 1.0000
72.4100 94.0000 1.0000
72.4200 84.0000 1.0000
72.4300 94.0000 1.0000
72.4400 77.0000 1.0000
72.4500 77.0000 1.0000
72.4600 93.0000 1.0000
72.4700 110.0000 1.0000
72.4800 99.0000 1.0000
72.4900 78.0000 1.0000
72.5000 81.0000 1.0000
72.5100 99.0000 1.0000
72.5200 80.0000 1.0000
72.5300 91.0000 1.0000
72.5400 77.0000 1.0000
72.5500 98.0000 1.0000
72.5600 92.0000 1.0000
72.5700 89.0000 1.0000
72.5800 98.0000 1.0000
72.5900 101.0000 1.0000
72.6000 101.0000 1.0000
72.6100 91.0000 1.0000
72.6200 102.0000 1.0000
72.6300 106.0000 1.0000
72.6400 86.0000 1.0000
72.6500 120.0000 1.0000
72.6600 93.0000 1.0000
72.6700 102.0000 1.0000
72.6800 94.0000 1.0000
72.6900 109.0000 1.0000
72.7000 90.0000 1.0000
72.7100 88.0000 1.0000
72.7200 94.0000 1.0000
72.7300 97.0000 1.0000
72.7400 95.0000 1.0000
72.7500 91.0000 1.0000
72.7600 86.0000 1.0000
72.7700 112.0000 1.0000
72.7800 103.0000 1.0000
72.7900 97.0000 1.0000
72.8000 98.0000 1.0000
72.8100 98.0000 1.0000
72.8200 94.0000 1.0000
72.8300 110.0000 1.0000
72.8400 93.0000 1.0000
72.8500 96.0000 1.0000
72.8600 91.0000 1.0000
72.8700 90.0000 1.0000
72.8800 85.0000 1.0000
72.8900 93.0000 1.0000
72.9000 109.0000 1.0000
72.9100 107.0000 1.0000
72.9200 98.0000 1.0000
72.9300 112.0000 1.0000
72.9400 102.0000 1.0000
72.9500 94.0000 1.0000
72.9600 98.0000 1.0000
72.9700 110.0000 1.0000
72.9800 110.0000 1.0000
72.9900 102.0000 1.0000
73.0000 99.0000 1.0000
73.0100 82.0000 1.0000
73.0200 85.0000 1.0000
73.0300 82.0000 1.0000
73.0400 96.0000 1.0000
73.0500 101.0000 1.0000
73.0600 97.0000 1.0000
73.0700 104.0000 1.0000
73.0800 95.0000 1.0000
73.0900 93.0000 1.0000
73.1000 112.0000 1.0000
73.1100 93.0000 1.0000
73.1200 118.0000 1.0000
73.1300 115.0000 1.0000
73.1400 93.0000 1.0000
73.1500 88.0000 1.0000
73.1600 96.0000 1.0000
73.1700 109.0000 1.0000
73.1800 88.0000 1.0000
73.1900 97.0000 1.0000
73.2000 96.0000 1.0000
73.2100 85.0000 1.0000
73.2200 93.0000 1.0000
73.2300 98.0000 1.0000
73.2400 87.0000 1.0000
73.2500 79.0000 1.0000
73.2600 102.0000 1.0000
73.2700 108.0000 1.0000
73.2800 100.0000 1.0000
73.2900 104.0000 1.0000
73.3000 96.0000 1.0000
73.3100 104.0000 1.0000
73.3200 118.0000 1.0000
73.3300 97.0000 1.0000
73.3400 78.0000 1.0000
73.3500 98.0000 1.0000
73.3600 113.0000 1.0000
73.3700 85.0000 1.0000
73.3800 101.0000 1.0000
73.3900 104.0000 1.0000
73.4000 86.0000 1.0000
73.4100 111.0000 1.0000
73.4200 123.0000 1.0000
73.4300 86.0000 1.0000
73.4400 112.0000 1.0000
73.4500 108.0000 1.0000
73.4600 93.0000 1.0000
73.4700 119.0000 1.0000
73.4800 102.0000 1.0000
73.4900 101.0000 1.0000
73.5000 98.0000 1.0000
73.5100 98.0000 1.0000
73.5200 105.0000 1.0000
73.5300 95.0000 1.0000
73.5400 98.0000 1.0000
73.5500 76.0000 1.0000
73.5600 98.0000 1.0000
73.5700 101.0000 1.0000
73.5800 113.0000 1.0000
73.5900 116.0000 1.0000
73.6000 91.0000 1.0000
73.6100 106.0000 1.0000
73.6200 89.0000 1.0000
73.6300 99.0000 1.0000
73.6400 109.0000 1.0000
73.6500 90.0000 1.0000
73.6600 84.0000 1.0000
73.6700 113.0000 1.0000
73.6800 108.0000 1.0000
73.6900 94.0000 1.0000
73.7000 103.0000 1.0000
73.7100 107.0000 1.0000
73.7200 93.0000 1.0000
73.7300 88.0000 1.0000
73.7400 96.0000 1.0000
73.7500 102.0000 1.0000
73.7600 108.0000 1.0000
73.7700 101.0000 1.0000
73.7800 84.0000 1.0000
73.7900 117.0000 1.0000
73.8000 104.0000 1.0000
73.8100 102.0000 1.0000
73.8200 115.0000 1.0000
73.8300 103.0000 1.0000
73.8400 107.0000 1.0000
73.8500 104.0000 1.0000
73.8600 98.0000 1.0000
73.8700 97.0000 1.0000
73.8800 96.0000 1.0000
73.8900 86.0000 1.0000
73.9000 104.0000 1.0000
73.9100 109.0000 1.0000
73.9200 96.0000 1.0000
73.9300 87.0000 1.0000
73.9400 92.0000 1.0000
73.9500 97.0000 1.0000
73.9600 105.0000 1.0000
73.9700 129.0000 1.0000
73.9800 113.0000 1.0000
73.9900 111.0000 1.0000
74.0000 106.0000 1.0000
74.0100 98.0000 1.0000
74.0200 93.0000 1.0000
74.0300 99.0000 1.0000
74.0400 107.0000 1.0000
74.0500 112.0000 1.0000
74.0600 89.0000 1.0000
74.0700 116.0000 1.0000
74.0800 100.0000 1.0000
74.0900 94.0000 1.0000
74.1000 94.0000 1.0000
74.1100 103.0000 1.0000
74.1200 107.0000 1.0000
74.1300 101.0000 1.0000
74.1400 104.0000 1.0000
74.1500 99.0000 1.0000
74.1600 114.0000 1.0000
74.1700 110.0000 1.0000
74.1800 88.0000 1.0000
74.1900 94.0000 1.0000
74.2000 104.0000 1.0000
74.2100 95.0000 1.0000
74.2200 98.0000 1.0000
74.2300 110.0000 1.0000
74.2400 86.0000 1.0000
74.2500 123.0000 1.0000
74.2600 118.0000 1.0000
74.2700 115.0000 1.0000
74.2800 99.0000 1.0000
74.2900 93.0000 1.0000
74.3000 113.0000 1.0000
74.3100 108.0000 1.0000
74.3200 119.0000 1.0000
74.3300 105.0000 1.0000
74.3400 112.0000 1.0000
74.3500 98.0000 1.0000
74.3600 110.0000 1.0000
74.3700 90.0000 1.0000
74.3800 81.0000 1.0000
74.3900 100.0000 1.0000
74.4000 108.0000 1.0000
74.4100 114.0000 1.0000
74.4200 95.0000 1.0000
74.4300 101.0000 1.0000
74.4400 116.0000 1.0000
74.4500 110.0000 1.0000
74.4600 104.0000 1.0000
74.4700 97.0000 1.0000
74.4800 120.0000 1.0000
74.4900 102.0000 1.0000
74.5000 103.0000 1.0000
74.5100 123.0000 1.0000
74.5200 100.0000 1.0000
74.5300 97.0000 1.0000
74.5400 112.0000 1.0000
74.5500 111.0000 1.0000
74.5600 97.0000 1.0000
74.5700 104.0000 1.0000
74.5800 104.0000 1.0000
74.5900 98.0000 1.0000
74.6000 104.0000 1.0000
74.6100 116.0000 1.0000
74.6200 112.0000 1.0000
74.6300 116.0000 1.0000
74.6400 104.0000 1.0000
74.6500 123.0000 1.0000
74.6600 99.0000 1.0000
74.6700 131.0000 1.0000
74.6800 94.0000 1.0000
74.6900 102.0000 1.0000
74.7000 113.0000 1.0000
74.7100 108.0000 1.0000
74.7200 103.0000 1.0000
74.7300 115.0000 1.0000
74.7400 109.0000 1.0000
74.7500 117.0000 1.0000
74.7600 93.0000 1.0000
74.7700 102.0000 1.0000
74.7800 92.0000 1.0000
74.7900 100.0000 1.0000
74.8000 108.0000 1.0000
74.8100 100.0000 1.0000
74.8200 93.0000 1.0000
74.8300 121.0000 1.0000
74.8400 125.0000 1.0000
74.8500 113.0000 1.0000
74.8600 122.0000 1.0000
74.8700 104.0000 1.0000
74.8800 117.0000 1.0000
74.8900 93.0000 1.0000
74.9000 117.0000 1.0000
74.9100 108.0000 1.0000
74.9200 114.0000 1.0000
74.9300 121.0000 1.0000
74.9400 108.0000 1.0000
74.9500 114.0000 1.0000
74.9600 104.0000 1.0000
74.9700 121.0000 1.0000
74.9800 144.0000 1.0000
74.9900 146.0000 1.0000
75.0000 128.0000 1.0000
75.0100 124.0000 1.0000
75.0200 132.0000 1.0000
75.0300 128.0000 1.0000
75.0400 122.0000 1.0000
75.0500 120.0000 1.0000
75.0600 141.0000 1.0000
75.0700 149.0000 1.0000
75.0800 132.0000 1.0000
75.0900 136.0000 1.0000
75.1000 143.0000 1.0000
75.1100 136.0000 1.0000
75.1200 139.0000 1.0000
75.1300 146.0000 1.0000
75.1400 151.0000 1.0000
75.1500 159.0000 1.0000
75.1600 153.0000 1.0000
75.1700 182.0000 1.0000
75.1800 171.0000 1.0000
75.1900 167.0000 1.0000
75.2000 196.0000 1.0000
75.2100 190.0000 1.0000
75.2200 176.0000 1.0000
75.2300 195.0000 1.0000
75.2400 241.0000 1.0000
75.2500 219.0000 1.0000
75.2600 212.0000 1.0000
75.2700 249.0000 1.0000
75.2800 280.0000 1.0000
75.2900 246.0000 1.0000
75.3000 293.0000 1.0000
75.3100 300.0000 1.0000
75.3200 335.0000 1.0000
75.3300 389.0000 1.0000
75.3400 401.0000 1.0000
75.3500 446.0000 1.0000
75.3600 471.0000 1.0000
75.3700 520.0000 1.0000
75.3800 605.0000 1.0000
75.3900 595.0000 1.0000
75.4000 716.0000 1.0000
75.4100 788.0000 1.0000
75.4200 794.0000 1.0000
75.4300 890.0000 1.0000
75.4400 969.0000 1.0000
75.4500 984.0000 1.0000
75.4600 1095.0000 1.0000
75.4700 1118.0000 1.0000
75.4800 1244.0000 1.0000
75.4900 1191.0000 1.0000
75.5000 1295.0000 1.0000
75.5100 1339.0000 1.0000
75.5200 1278.0000 1.0000
75.5300 1364.0000 1.0000
75.5400 1419.0000 1.0000
75.5500 1464.0000 1.0000
75.5600 1322.0000 1.0000
75.5700 1411.0000 1.0000
75.5800 1366.0000 1.0000
75.5900 1360.0000 1.0000
75.6000 1298.0000 1.0000
75.6100 1357.0000 1.0000
75.6200 1319.0000 1.0000
75.6300 1260.0000 1.0000
75.6400 1315.0000 1.0000
75.6500 1239.0000 1.0000
75.6600 1207.0000 1.0000
75.6700 1229.0000 1.0000
75.6800 1173.0000 1.0000
75.6900 1115.0000 1.0000
75.7000 1092.0000 1.0000
75.7100 1049.0000 1.0000
75.7200 1008.0000 1.0000
75.7300 963.0000 1.0000
75.7400 896.0000 1.0000
75.7500 950.0000 1.0000
75.7600 874.0000 1.0000
75.7700 856.0000 1.0000
75.7800 893.0000 1.0000
75.7900 782.0000 1.0000
75.8000 759.0000 1.0000
75.8100 741.0000 1.0000
75.8200 731.0000 1.0000
75.8300 712.0000 1.0000
75.8400 639.0000 1.0000
75.8500 631.0000 1.0000
75.8600 565.0000 1.0000
75.8700 574.0000 1.0000
75.8800 448.0000 1.0000
75.8900 449.0000 1.0000
75.9000 478.0000 1.0000
75.9100 436.0000 1.0000
75.9200 402.0000 1.0000
75.9300 333.0000 1.0000
75.9400 334.0000 1.0000
75.9500 316.0000 1.0000
75.9600 295.0000 1.0000
75.9700 282.0000 1.0000
75.9800 253.0000 1.0000
75.9900 220.0000 1.0000
76.0000 244.0000 1.0000
76.0100 206.0000 1.0000
76.0200 208.0000 1.0000
76.0300 165.0000 1.0000
76.0400 195.0000 1.0000
76.0500 188.0000 1.0000
76.0600 172.0000 1.0000
76.0700 180.0000 1.0000
76.0800 159.0000 1.0000
76.0900 148.0000 1.0000
76.1000 147.0000 1.0000
76.1100 148.0000 1.0000
76.1200 140.0000 1.0000
76.1300 143.0000 1.0000
76.1400 137.0000 1.0000
76.1500 134.0000 1.0000
76.1600 150.0000 1.0000
76.1700 139.0000 1.0000
76.1800 132.0000 1.0000
76.1900 112.0000 1.0000
76.2000 120.0000 1.0000
76.2100 133.0000 1.0000
76.2200 119.0000 1.0000
76.2300 125.0000 1.0000
76.2400 112.0000 1.0000
76.2500 108.0000 1.0000
76.2600 117.0000 1.0000
76.2700 106.0000 1.0000
76.2800 121.0000 1.0000
76.2900 110.0000 1.0000
76.3000 101.0000 1.0000
76.3100 104.0000 1.0000
76.3200 121.0000 1.0000
76.3300 115.0000 1.0000
76.3400 104.0000 1.0000
76.3500 123.0000 1.0000
76.3600 109.0000 1.0000
76.3700 105.0000 1.0000
76.3800 116.0000 1.0000
76.3900 114.0000 1.0000
76.4000 117.0000 1.0000
76.4100 119.0000 1.0000
76.4200 121.0000 1.0000
76.4300 102.0000 1.0000
76.4400 104.0000 1.0000
76.4500 114.0000 1.0000
76.4600 100.0000 1.0000
76.4700 123.0000 1.0000
76.4800 96.0000 1.0000
76.4900 133.0000 1.0000
76.5000 104.0000 1.0000
76.5100 99.0000 1.0000
76.5200 93.0000 1.0000
76.5300 90.0000 1.0000
76.5400 109.0000 1.0000
76.5500 105.0000 1.0000
76.5600 119.0000 1.0000
76.5700 126.0000 1.0000
76.5800 103.0000 1.0000
76.5900 93.0000 1.0000
76.6000 105.0000 1.0000
76.6100 123.0000 1.0000
76.6200 90.0000 1.0000
76.6300 126.0000 1.0000
76.6400 105.0000 1.0000
76.6500 90.0000 1.0000
76.6600 100.0000 1.0000
76.6700 91.0000 1.0000
76.6800 128.0000 1.0000
76.6900 108.0000 1.0000
76.7000 105.0000 1.0000
76.7100 120.0000 1.0000
76.7200 117.0000 1.0000
76.7300 111.0000 1.0000
76.7400 103.0000 1.0000
76.7500 103.0000 1.0000
76.7600 89.0000 1.0000
76.7700 93.0000 1.0000
76.7800 114.0000 1.0000
76.7900 103.0000 1.0000
76.8000 106.0000 1.0000
76.8100 87.0000 1.0000
76.8200 98.0000 1.0000
76.8300 110.0000 1.0000
76.8400 125.0000 1.0000
76.8500 104.0000 1.0000
76.8600 90.0000 1.0000
76.8700 89.0000 1.0000
76.8800 104.0000 1.0000
76.8900 96.0000 1.0000
76.9000 115.0000 1.0000
76.9100 99.0000 1.0000
76.9200 103.0000 1.0000
76.9300 99.0000 1.0000
76.9400 87.0000 1.0000
76.9500 96.0000 1.0000
76.9600 88.0000 1.0000
76.9700 105.0000 1.0000
76.9800 96.0000 1.0000
76.9900 111.0000 1.0000
77.0000 115.0000 1.0000
77.0100 101.0000 1.0000
77.0200 115.0000 1.0000
77.0300 90.0000 1.0000
77.0400 107.0000 1.0000
77.0500 102.0000 1.0000
77.0600 109.0000 1.0000
77.0700 113.0000 1.0000
77.0800 100.0000 1.0000
77.0900 104.0000 1.0000
77.1000 101.0000 1.0000
77.1100 132.0000 1.0000
77.1200 95.0000 1.0000
77.1300 110.0000 1.0000
77.1400 95.0000 1.0000
77.1500 104.0000 1.0000
77.1600 86.0000 1.0000
77.1700 118.0000 1.0000
77.1800 83.0000 1.0000
77.1900 88.0000 1.0000
77.2000 99.0000 1.0000
77.2100 95.0000 1.0000
77.2200 90.0000 1.0000
77.2300 116.0000 1.0000
77.2400 109.0000 1.0000
77.2500 109.0000 1.0000
77.2600 79.0000 1.0000
77.2700 110.0000 1.0000
77.2800 92.0000 1.0000
77.2900 112.0000 1.0000
77.3000 98.0000 1.0000
77.3100 107.0000 1.0000
77.3200 109.0000 1.0000
77.3300 101.0000 1.0000
77.3400 107.0000 1.0000
77.3500 115.0000 1.0000
77.3600 90.0000 1.0000
77.3700 107.0000 1.0000
77.3800 111.0000 1.0000
77.3900 116.0000 1.0000
77.4000 107.0000 1.0000
77.4100 110.0000 1.0000
77.4200 111.0000 1.0000
77.4300 117.0000 1.0000
77.4400 93.0000 1.0000
77.4500 103.0000 1.0000
77.4600 107.0000 1.0000
77.4700 99.0000 1.0000
77.4800 115.0000 1.0000
77.4900 100.0000 1.0000
77.5000 109.0000 1.0000
77.5100 109.0000 1.0000
77.5200 108.0000 1.0000
77.5300 120.0000 1.0000
77.5400 104.0000 1.0000
77.5500 69.0000 1.0000
77.5600 109.0000 1.0000
77.5700 109.0000 1.0000
77.5800 108.0000 1.0000
77.5900 110.0000 1.0000
77.6000 122.0000 1.0000
77.6100 115.0000 1.0000
77.6200 95.0000 1.0000
77.6300 86.0000 1.0000
77.6400 105.0000 1.0000
77.6500 116.0000 1.0000
77.6600 105.0000 1.0000
77.6700 108.0000 1.0000
77.6800 112.0000 1.0000
77.6900 102.0000 1.0000
77.7000 95.0000 1.0000
77.7100 90.0000 1.0000
77.7200 125.0000 1.0000
77.7300 90.0000 1.0000
77.7400 109.0000 1.0000
77.7500 120.0000 1.0000
77.7600 122.0000 1.0000
77.7700 98.0000 1.0000
77.7800 97.0000 1.0000
77.7900 101.0000 1.0000
77.8000 123.0000 1.0000
77.8100 108.0000 1.0000
77.8200 103.0000 1.0000
77.8300 92.0000 1.0000
77.8400 107.0000 1.0000
77.8500 101.0000 1.0000
77.8600 103.0000 1.0000
77.8700 104.0000 1.0000
77.8800 107.0000 1.0000
77.8900 127.0000 1.0000
77.9000 113.0000 1.0000
77.9100 106.0000 1.0000
77.9200 97.0000 1.0000
77.9300 97.0000 1.0000
77.9400 97.0000 1.0000
77.9500 88.0000 1.0000
77.9600 97.0000 1.0000
77.9700 103.0000 1.0000
77.9800 90.0000 1.0000
77.9900 87.0000 1.0000
78.0000 97.0000 1.0000
78.0100 103.0000 1.0000
78.0200 131.0000 1.0000
78.0300 87.0000 1.0000
78.0400 121.0000 1.0000
78.0500 106.0000 1.0000
78.0600 100.0000 1.0000
78.0700 91.0000 1.0000
78.0800 126.0000 1.0000
78.0900 110.0000 1.0000
78.1000 110.0000 1.0000
78.1100 119.0000 1.0000
78.1200 107.0000 1.0000
78.1300 99.0000 1.0000
78.1400 110.0000 1.0000
78.1500 93.0000 1.0000
78.1600 110.0000 1.0000
78.1700 117.0000 1.0000
78.1800 110.0000 1.0000
78.1900 83.0000 1.0000
78.2000 84.0000 1.0000
78.2100 116.0000 1.0000
78.2200 107.0000 1.0000
78.2300 94.0000 1.0000
78.2400 96.0000 1.0000
78.2500 105.0000 1.0000
78.2600 129.0000 1.0000
78.2700 104.0000 1.0000
78.2800 112.0000 1.0000
78.2900 93.0000 1.0000
78.3000 117.0000 1.0000
78.3100 106.0000 1.0000
78.3200 95.0000 1.0000
78.3300 99.0000 1.0000
78.3400 113.0000 1.0000
78.3500 102.0000 1.0000
78.3600 90.0000 1.0000
78.3700 113.0000 1.0000
78.3800 107.0000 1.0000
78.3900 89.0000 1.0000
78.4000 135.0000 1.0000
78.4100 114.0000 1.0000
78.4200 104.0000 1.0000
78.4300 101.0000 1.0000
78.4400 105.0000 1.0000
78.4500 99.0000 1.0000
78.4600 101.0000 1.0000
78.4700 117.0000 1.0000
78.4800 117.0000 1.0000
78.4900 97.0000 1.0000
78.5000 104.0000 1.0000
78.5100 107.0000 1.0000
78.5200 95.0000 1.0000
78.5300 99.0000 1.0000
78.5400 85.0000 1.0000
78.5500 100.0000 1.0000
78.5600 94.0000 1.0000
78.5700 106.0000 1.0000
78.5800 110.0000 1.0000
78.5900 98.0000 1.0000
78.6000 93.0000 1.0000
78.6100 105.0000 1.0000
78.6200 95.0000 1.0000
78.6300 113.0000 1.0000
78.6400 120.0000 1.0000
78.6500 82.0000 1.0000
78.6600 104.0000 1.0000
78.6700 96.0000 1.0000
78.6800 86.0000 1.0000
78.6900 115.0000 1.0000
78.7000 108.0000 1.0000
78.7100 78.0000 1.0000
78.7200 104.0000 1.0000
78.7300 105.0000 1.0000
78.7400 101.0000 1.0000
78.7500 83.0000 1.0000
78.7600 96.0000 1.0000
78.7700 107.0000 1.0000
78.7800 86.0000 1.0000
78.7900 87.0000 1.0000
78.8000 119.0000 1.0000
78.8100 96.0000 1.0000
78.8200 83.0000 1.0000
78.8300 116.0000 1.0000
78.8400 103.0000 1.0000
78.8500 107.0000 1.0000
78.8600 98.0000 1.0000
78.8700 95.0000 1.0000
78.8800 99.0000 1.0000
78.8900 102.0000 1.0000
78.9000 108.0000 1.0000
78.9100 122.0000 1.0000
78.9200 89.0000 1.0000
78.9300 90.0000 1.0000
78.9400 96.0000 1.0000
78.9500 106.0000 1.0000
78.9600 95.0000 1.0000
78.9700 114.0000 1.0000
78.9800 104.0000 1.0000
78.9900 104.0000 1.0000
79.0000 98.0000 1.0000
79.0100 105.0000 1.0000
79.0200 102.0000 1.0000
79.0300 110.0000 1.0000
79.0400 110.0000 1.0000
79.0500 91.0000 1.0000
79.0600 95.0000 1.0000
79.0700 104.0000 1.0000
79.0800 113.0000 1.0000
79.0900 107.0000 1.0000
79.1000 89.0000 1.0000
79.1100 101.0000 1.0000
79.1200 97.0000 1.0000
79.1300 106.0000 1.0000
79.1400 104.0000 1.0000
79.1500 91.0000 1.0000
79.1600 96.0000 1.0000
79.1700 110.0000 1.0000
79.1800 111.0000 1.0000
79.1900 98.0000 1.0000
79.2000 103.0000 1.0000
79.2100 92.0000 1.0000
79.2200 99.0000 1.0000
79.2300 93.0000 1.0000
79.2400 95.0000 1.0000
79.2500 100.0000 1.0000
79.2600 86.0000 1.0000
79.2700 122.0000 1.0000
79.2800 94.0000 1.0000
79.2900 93.0000 1.0000
79.3000 90.0000 1.0000
79.3100 94.0000 1.0000
79.3200 94.0000 1.0000
79.3300 100.0000 1.0000
79.3400 97.0000 1.0000
79.3500 89.0000 1.0000
79.3600 91.0000 1.0000
79.3700 88.0000 1.0000
79.3800 103.0000 1.0000
79.3900 104.0000 1.0000
79.4000 100.0000 1.0000
79.4100 100.0000 1.0000
79.4200 89.0000 1.0000
79.4300 101.0000 1.0000
79.4400 106.0000 1.0000
79.4500 109.0000 1.0000
79.4600 98.0000 1.0000
79.4700 109.0000 1.0000
79.4800 102.0000 1.0000
79.4900 101.0000 1.0000
79.5000 125.0000 1.0000
79.5100 103.0000 1.0000
79.5200 99.0000 1.0000
79.5300 107.0000 1.0000
79.5400 109.0000 1.0000
79.5500 125.0000 1.0000
79.5600 86.0000 1.0000
79.5700 113.0000 1.0000
79.5800 108.0000 1.0000
79.5900 104.0000 1.0000
79.6000 100.0000 1.0000
79.6100 89.0000 1.0000
79.6200 92.0000 1.0000
79.6300 117.0000 1.0000
79.6400 123.0000 1.0000
79.6500 105.0000 1.0000
79.6600 116.0000 1.0000
79.6700 104.0000 1.0000
79.6800 102.0000 1.0000
79.6900 101.0000 1.0000
79.7000 70.0000 1.0000
79.7100 104.0000 1.0000
79.7200 112.0000 1.0000
79.7300 117.0000 1.0000
79.7400 109.0000 1.0000
79.7500 103.0000 1.0000
79.7600 109.0000 1.0000
79.7700 104.0000 1.0000
79.7800 98.0000 1.0000
79.7900 102.0000 1.0000
79.8000 109.0000 1.0000
79.8100 104.0000 1.0000
79.8200 88.0000 1.0000
79.8300 95.0000 1.0000
79.8400 110.0000 1.0000
79.8500 83.0000 1.0000
79.8600 102.0000 1.0000
79.8700 92.0000 1.0000
79.8800 102.0000 1.0000
79.8900 100.0000 1.0000
79.9000 97.0000 1.0000
79.9100 105.0000 1.0000
79.9200 94.0000 1.0000
79.9300 105.0000 1.0000
79.9400 117.0000 1.0000
79.9500 98.0000 1.0000
79.9600 102.0000 1.0000
79.9700 116.0000 1.0000
79.9800 81.0000 1.0000
79.9900 105.0000 1.0000
80.0000 102.0000 1.0000
*RAS_INT_END
*RAS_DATA_END
