*RAS_DATA_START
*RAS_HEADER_START
*DISP_FMT_X "%.2f"
*DISP_FMT_Y "%.0f"
*DISP_FULLSCALE "9792.0000000000"
*DISP_LINE_COLOR "255.0000000000"
*DISP_LINE_STYLE "0.0000000000"
*DISP_LINE_WIDTH "0.2500000000"
*DISP_NOTE "Collected Data-127"
*DISP_OFFSET_Y "0.0000000000"
*DISP_PEAKSEARCH_UNIT_Y "cps"
*DISP_RANGE_BOTTOM "0.0000000000"
*DISP_RANGE_LEFT "20.0000000000"
*DISP_RANGE_LOGCUTOFF "0.0100000000"
*DISP_RANGE_RIGHT "80.0000000000"
*DISP_RANGE_TOP "9792.0000000000"
*DISP_SCALE_MODE_Y "0.0000000000"
*DISP_TAB_NAME "2-Theta/Omega"
*DISP_TITLE_Y "Intensity"
*DISP_UNIT_Y "cps"
*DISP_WINDOW_NAME "MSG_MACROENGINE"
*FILE_COMMENT " "
*FILE_MD5 ""
*FILE_MEMO " "
*FILE_OPERATOR "dell"
*FILE_PART_ID "MEAS_KHP2_00061"
*FILE_SAMPLE " "
*FILE_TYPE "RAS_RAW"
*FILE_USERGROUP "System Manager"
*FILE_VERSION "1.0000000000"
*HW_ATTACHMENT_ID "ATT0022"
*HW_ATTACHMENT_NAME "RxRy|RxRy"
*HW_COUNTER_ID-0 "CUT0021"
*HW_COUNTER_ID-1 "CUT0020"
*HW_COUNTER_ID-2 ""
*HW_COUNTER_ID-3 "CSL0021"
*HW_COUNTER_ID-4 "CMC0021"
*HW_COUNTER_NAME-0 "SC-70|SC-70"
*HW_COUNTER_NAME-1 "None|None"
*HW_COUNTER_NAME-2 ""
*HW_COUNTER_NAME-3 "BBM|BBM"
*HW_COUNTER_NAME-4 "検出器モノクロメータ|Detector monochromator"
*HW_COUNTER_SELECT_NAME "SC-70|SC-70"
*HW_ECP_HV "671.0000000000"
*HW_ECP_HV_UNIT "V"
*HW_GONIOMETER_ID "GON0024"
*HW_GONIOMETER_NAME "SmartLab(In-plane)|SmartLab(In-plane)"
*HW_GONIOMETER_RADIUS-0 "90.0"
*HW_GONIOMETER_RADIUS-1 "114.0"
*HW_GONIOMETER_RADIUS-2 "190.0"
*HW_GONIOMETER_RADIUS-3 "300.0"
*HW_GONIOMETER_RADIUS-4 "187.0"
*HW_GONIOMETER_RADIUS-5 "300.0"
*HW_GONIOMETER_RADIUS-6 "113.0"
*HW_GONIOMETER_RADIUS-7 "331.0"
*HW_I_OPT_ID-0 "CBO0021"
*HW_I_OPT_ID-1 "ICR0023"
*HW_I_OPT_ID-2 "ISL0021"
*HW_I_OPT_ID-3 "ISO0021"
*HW_I_OPT_ID-4 "IAD0021"
*HW_I_OPT_ID-5 "IPR0001"
*HW_I_OPT_NAME-0 "CBOユニット|CBO unit"
*HW_I_OPT_NAME-1 "標準入射光学ユニット|Standard incident optical unit"
*HW_I_OPT_NAME-2 "標準入射スリットボックス|Standard incident slit box"
*HW_I_OPT_NAME-3 "入射平行スリット|Incident parallel slit"
*HW_I_OPT_NAME-4 "長手制限スリット|Length limiting slit"
*HW_I_OPT_NAME-5 "None|None"
*HW_R_ATTENUATER_AUTOMODE "1"
*HW_R_OPT_ID-0 "RSS0021"
*HW_R_OPT_ID-1 "RCR0022"
*HW_R_OPT_ID-2 "RSO0021"
*HW_R_OPT_ID-3 "RRS0021"
*HW_R_OPT_ID-4 "ATN0021"
*HW_R_OPT_ID-5 "RFL0021"
*HW_R_OPT_ID-6 "RAD0021"
*HW_R_OPT_NAME-0 "標準受光スリットボックス1|Standard receiving slit box # 1"
*HW_R_OPT_NAME-1 "標準受光光学ユニット1|Standard receiving unit # 1"
*HW_R_OPT_NAME-2 "標準受光光学ユニット2|Standard receiving optical unit # 2"
*HW_R_OPT_NAME-3 "標準受光スリットボックス2|Standard receiving slit box # 2"
*HW_R_OPT_NAME-4 "標準アッテネータ|Standard Attenuator"
*HW_R_OPT_NAME-5 "Cu Kβ|Cu K-beta"
*HW_R_OPT_NAME-6 "調整用受光スリット|Alignment receiving slit"
*HW_SAMPLE_HOLDER_ID "SMP0026"
*HW_SAMPLE_HOLDER_NAME "Z-φステージ|Z-Phi Stage"
*HW_XG_CURRENT_MAX "200"
*HW_XG_CURRENT_MIN "10"
*HW_XG_CURRENT_RESOLUTION "2"
*HW_XG_CURRENT_UNIT "mA"
*HW_XG_FOCUS ""
*HW_XG_FOCUS_TYPE "Normal"
*HW_XG_ID ""
*HW_XG_NAME "9kW 開放管(45kV 200mA ID:1700)|9kW Rotating anode(45kV 200mA ID:1700)"
*HW_XG_TARGET_ATOMIC_NUMBER "29.0000000000"
*HW_XG_TARGET_NAME "Cu"
*HW_XG_TYPE "Rota"
*HW_XG_VOLTAGE_MAX "45"
*HW_XG_VOLTAGE_MIN "20"
*HW_XG_VOLTAGE_RESOLUTION "2"
*HW_XG_VOLTAGE_UNIT "kV"
*HW_XG_WATT_MAX "9"
*HW_XG_WATT_UNIT "kW"
*HW_XG_WAVE_LENGTH_ALPHA1 "1.540593"
*HW_XG_WAVE_LENGTH_ALPHA2 "1.544414"
*HW_XG_WAVE_LENGTH_BETA "1.392250"
*MEAS_COND_AXIS_NAME-0 "Theta/2-Theta"
*MEAS_COND_AXIS_NAME-1 "2-Theta"
*MEAS_COND_AXIS_NAME-2 "Omega"
*MEAS_COND_AXIS_NAME-3 "Phi"
*MEAS_COND_AXIS_NAME-4 "Z"
*MEAS_COND_AXIS_NAME-5 "Rx"
*MEAS_COND_AXIS_NAME-6 "Ry"
*MEAS_COND_AXIS_NAME-7 "2-Theta/Omega"
*MEAS_COND_AXIS_NAME-8 "2-ThetaChi"
*MEAS_COND_AXIS_NAME-9 "2-ThetaChi/Phi"
*MEAS_COND_AXIS_NAME-10 "Alpha"
*MEAS_COND_AXIS_NAME-11 "Beta"
*MEAS_COND_AXIS_NAME-12 "Theta_s"
*MEAS_COND_AXIS_NAME-13 "Theta_d"
*MEAS_COND_AXIS_NAME-14 "Ts"
*MEAS_COND_AXIS_NAME-15 "CBO selection slit"
*MEAS_COND_AXIS_NAME-16 "M"
*MEAS_COND_AXIS_NAME-17 "Incident parallel slit"
*MEAS_COND_AXIS_NAME-18 "Incident slit"
*MEAS_COND_AXIS_NAME-19 ""
*MEAS_COND_AXIS_NAME-20 "Zs"
*MEAS_COND_AXIS_NAME-21 "Incident monochromator"
*MEAS_COND_AXIS_NAME-22 "Length limiting slit"
*MEAS_COND_AXIS_NAME-23 "Center slit"
*MEAS_COND_AXIS_NAME-24 "Filter"
*MEAS_COND_AXIS_NAME-25 "Receiving slit # 1"
*MEAS_COND_AXIS_NAME-26 "Receiving slit # 2"
*MEAS_COND_AXIS_NAME-27 "Receiving optical device"
*MEAS_COND_AXIS_NAME-28 "Receiving parallel slit"
*MEAS_COND_AXIS_NAME-29 "Alignment receiving slit"
*MEAS_COND_AXIS_NAME-30 ""
*MEAS_COND_AXIS_NAME-31 ""
*MEAS_COND_AXIS_NAME-32 "Zd"
*MEAS_COND_AXIS_NAME-33 "Attenuator"
*MEAS_COND_AXIS_NAME-34 "Diffracted beam monochromator"
*MEAS_COND_AXIS_NAME-35 "Monochromator slit"
*MEAS_COND_AXIS_NAME-36 "2-ThetaB"
*MEAS_COND_AXIS_NAME-37 "Primary beam"
*MEAS_COND_AXIS_NAME-38 "HV"
*MEAS_COND_AXIS_NAME-39 "PHA"
*MEAS_COND_AXIS_NAME_INTERNAL-0 "TwoThetaTheta"
*MEAS_COND_AXIS_NAME_INTERNAL-1 "TwoTheta"
*MEAS_COND_AXIS_NAME_INTERNAL-2 "Omega"
*MEAS_COND_AXIS_NAME_INTERNAL-3 "Phi"
*MEAS_COND_AXIS_NAME_INTERNAL-4 "Z"
*MEAS_COND_AXIS_NAME_INTERNAL-5 "Rx"
*MEAS_COND_AXIS_NAME_INTERNAL-6 "Ry"
*MEAS_COND_AXIS_NAME_INTERNAL-7 "TwoThetaOmega"
*MEAS_COND_AXIS_NAME_INTERNAL-8 "TwoThetaChi"
*MEAS_COND_AXIS_NAME_INTERNAL-9 "TwoThetaChiPhi"
*MEAS_COND_AXIS_NAME_INTERNAL-10 "Alpha"
*MEAS_COND_AXIS_NAME_INTERNAL-11 "Beta"
*MEAS_COND_AXIS_NAME_INTERNAL-12 "ThetaS"
*MEAS_COND_AXIS_NAME_INTERNAL-13 "ThetaD"
*MEAS_COND_AXIS_NAME_INTERNAL-14 "Ts"
*MEAS_COND_AXIS_NAME_INTERNAL-15 "CBO"
*MEAS_COND_AXIS_NAME_INTERNAL-16 "CBO-M"
*MEAS_COND_AXIS_NAME_INTERNAL-17 "IncidentSollerSlit"
*MEAS_COND_AXIS_NAME_INTERNAL-18 "IncidentSlitBox"
*MEAS_COND_AXIS_NAME_INTERNAL-19 "IncidentSlitBox-_Axis"
*MEAS_COND_AXIS_NAME_INTERNAL-20 "Zs"
*MEAS_COND_AXIS_NAME_INTERNAL-21 "IncidentMonochromator"
*MEAS_COND_AXIS_NAME_INTERNAL-22 "IncidentAxdSlit"
*MEAS_COND_AXIS_NAME_INTERNAL-23 "CenterSlit"
*MEAS_COND_AXIS_NAME_INTERNAL-24 "Filter"
*MEAS_COND_AXIS_NAME_INTERNAL-25 "ReceivingSlitBox1"
*MEAS_COND_AXIS_NAME_INTERNAL-26 "ReceivingSlitBox2"
*MEAS_COND_AXIS_NAME_INTERNAL-27 "ReceivingOptics"
*MEAS_COND_AXIS_NAME_INTERNAL-28 "ReceivingSollerSlit"
*MEAS_COND_AXIS_NAME_INTERNAL-29 "ReceivingAxdSlit"
*MEAS_COND_AXIS_NAME_INTERNAL-30 "ReceivingSlitBox1-_Axis"
*MEAS_COND_AXIS_NAME_INTERNAL-31 "ReceivingSlitBox2-_Axis"
*MEAS_COND_AXIS_NAME_INTERNAL-32 "ReceivingSlitBox2-Zd"
*MEAS_COND_AXIS_NAME_INTERNAL-33 "Attenuator"
*MEAS_COND_AXIS_NAME_INTERNAL-34 "CounterMonochromator"
*MEAS_COND_AXIS_NAME_INTERNAL-35 "CounterSlit"
*MEAS_COND_AXIS_NAME_INTERNAL-36 "TwoThetaB"
*MEAS_COND_AXIS_NAME_INTERNAL-37 "IncidentPrimary"
*MEAS_COND_AXIS_NAME_INTERNAL-38 "HV"
*MEAS_COND_AXIS_NAME_INTERNAL-39 "PHA"
*MEAS_COND_AXIS_NAME_MAGICNO-0 "83951616.0000000000"
*MEAS_COND_AXIS_NAME_MAGICNO-1 "268632064.0000000000"
*MEAS_COND_AXIS_NAME_MAGICNO-2 "268500992.0000000000"
*MEAS_COND_AXIS_NAME_MAGICNO-3 "268500992.0000000000"
*MEAS_COND_AXIS_NAME_MAGICNO-4 "285278208.0000000000"
*MEAS_COND_AXIS_NAME_MAGICNO-5 "285278208.0000000000"
*MEAS_COND_AXIS_NAME_MAGICNO-6 "285278208.0000000000"
*MEAS_COND_AXIS_NAME_MAGICNO-7 "83951616.0000000000"
*MEAS_COND_AXIS_NAME_MAGICNO-8 "268632064.0000000000"
*MEAS_COND_AXIS_NAME_MAGICNO-9 "83951616.0000000000"
*MEAS_COND_AXIS_NAME_MAGICNO-10 "17039360.0000000000"
*MEAS_COND_AXIS_NAME_MAGICNO-11 "17039360.0000000000"
*MEAS_COND_AXIS_NAME_MAGICNO-12 "131072.0000000000"
*MEAS_COND_AXIS_NAME_MAGICNO-13 "131072.0000000000"
*MEAS_COND_AXIS_NAME_MAGICNO-14 "318898176.0000000000"
*MEAS_COND_AXIS_NAME_MAGICNO-15 "20971521.0000000000"
*MEAS_COND_AXIS_NAME_MAGICNO-16 "285343744.0000000000"
*MEAS_COND_AXIS_NAME_MAGICNO-17 "20971521.0000000000"
*MEAS_COND_AXIS_NAME_MAGICNO-18 "22020097.0000000000"
*MEAS_COND_AXIS_NAME_MAGICNO-19 "25165824.0000000000"
*MEAS_COND_AXIS_NAME_MAGICNO-20 "318898176.0000000000"
*MEAS_COND_AXIS_NAME_MAGICNO-21 "1.0000000000"
*MEAS_COND_AXIS_NAME_MAGICNO-22 "20971521.0000000000"
*MEAS_COND_AXIS_NAME_MAGICNO-23 "20971521.0000000000"
*MEAS_COND_AXIS_NAME_MAGICNO-24 "20971521.0000000000"
*MEAS_COND_AXIS_NAME_MAGICNO-25 "23068673.0000000000"
*MEAS_COND_AXIS_NAME_MAGICNO-26 "23068673.0000000000"
*MEAS_COND_AXIS_NAME_MAGICNO-27 "20971521.0000000000"
*MEAS_COND_AXIS_NAME_MAGICNO-28 "20971521.0000000000"
*MEAS_COND_AXIS_NAME_MAGICNO-29 "20971521.0000000000"
*MEAS_COND_AXIS_NAME_MAGICNO-30 "25165824.0000000000"
*MEAS_COND_AXIS_NAME_MAGICNO-31 "25165824.0000000000"
*MEAS_COND_AXIS_NAME_MAGICNO-32 "285343744.0000000000"
*MEAS_COND_AXIS_NAME_MAGICNO-33 "17301505.0000000000"
*MEAS_COND_AXIS_NAME_MAGICNO-34 "20971521.0000000000"
*MEAS_COND_AXIS_NAME_MAGICNO-35 "20971521.0000000000"
*MEAS_COND_AXIS_NAME_MAGICNO-36 "17039360.0000000000"
*MEAS_COND_AXIS_NAME_MAGICNO-37 "20971521.0000000000"
*MEAS_COND_AXIS_NAME_MAGICNO-38 "0.0000000000"
*MEAS_COND_AXIS_NAME_MAGICNO-39 "0.0000000000"
*MEAS_COND_AXIS_OFFSET-0 "-"
*MEAS_COND_AXIS_OFFSET-1 "0.9517000000"
*MEAS_COND_AXIS_OFFSET-2 "1.4485000000"
*MEAS_COND_AXIS_OFFSET-3 "0.0000000000"
*MEAS_COND_AXIS_OFFSET-4 "-"
*MEAS_COND_AXIS_OFFSET-5 "-"
*MEAS_COND_AXIS_OFFSET-6 "-"
*MEAS_COND_AXIS_OFFSET-7 "-"
*MEAS_COND_AXIS_OFFSET-8 "0.0000000000"
*MEAS_COND_AXIS_OFFSET-9 "-"
*MEAS_COND_AXIS_OFFSET-10 "-"
*MEAS_COND_AXIS_OFFSET-11 "-"
*MEAS_COND_AXIS_OFFSET-12 "1.4485000000"
*MEAS_COND_AXIS_OFFSET-13 "-0.4968000000"
*MEAS_COND_AXIS_OFFSET-14 "-"
*MEAS_COND_AXIS_OFFSET-15 "-"
*MEAS_COND_AXIS_OFFSET-16 "-"
*MEAS_COND_AXIS_OFFSET-17 "-"
*MEAS_COND_AXIS_OFFSET-18 "-"
*MEAS_COND_AXIS_OFFSET-19 "-"
*MEAS_COND_AXIS_OFFSET-20 "-"
*MEAS_COND_AXIS_OFFSET-21 "-"
*MEAS_COND_AXIS_OFFSET-22 "-"
*MEAS_COND_AXIS_OFFSET-23 "-"
*MEAS_COND_AXIS_OFFSET-24 "-"
*MEAS_COND_AXIS_OFFSET-25 "-"
*MEAS_COND_AXIS_OFFSET-26 "-"
*MEAS_COND_AXIS_OFFSET-27 "-"
*MEAS_COND_AXIS_OFFSET-28 "-"
*MEAS_COND_AXIS_OFFSET-29 "-"
*MEAS_COND_AXIS_OFFSET-30 "-"
*MEAS_COND_AXIS_OFFSET-31 "-"
*MEAS_COND_AXIS_OFFSET-32 "-"
*MEAS_COND_AXIS_OFFSET-33 "-"
*MEAS_COND_AXIS_OFFSET-34 "-"
*MEAS_COND_AXIS_OFFSET-35 "-"
*MEAS_COND_AXIS_OFFSET-36 "-"
*MEAS_COND_AXIS_OFFSET-37 "-"
*MEAS_COND_AXIS_OFFSET-38 "-"
*MEAS_COND_AXIS_OFFSET-39 "-"
*MEAS_COND_AXIS_POSITION-0 "19.9950000000"
*MEAS_COND_AXIS_POSITION-1 "19.9950000000"
*MEAS_COND_AXIS_POSITION-2 "9.9975000000"
*MEAS_COND_AXIS_POSITION-3 "0.0000000000"
*MEAS_COND_AXIS_POSITION-4 "-0.4117000000"
*MEAS_COND_AXIS_POSITION-5 "0.0000000000"
*MEAS_COND_AXIS_POSITION-6 "0.0000000000"
*MEAS_COND_AXIS_POSITION-7 "19.9950000000"
*MEAS_COND_AXIS_POSITION-8 "0.0000000000"
*MEAS_COND_AXIS_POSITION-9 "0.0000000000"
*MEAS_COND_AXIS_POSITION-10 "90.0000000000"
*MEAS_COND_AXIS_POSITION-11 "0.0000000000"
*MEAS_COND_AXIS_POSITION-12 "9.9975000000"
*MEAS_COND_AXIS_POSITION-13 "9.9975000000"
*MEAS_COND_AXIS_POSITION-14 "-0.4998100000"
*MEAS_COND_AXIS_POSITION-15 "PB"
*MEAS_COND_AXIS_POSITION-16 "0.0000000000"
*MEAS_COND_AXIS_POSITION-17 "Soller_slit_5.0deg"
*MEAS_COND_AXIS_POSITION-18 "1.000mm"
*MEAS_COND_AXIS_POSITION-19 "1.0000000000"
*MEAS_COND_AXIS_POSITION-20 "-1.7303100000"
*MEAS_COND_AXIS_POSITION-21 "0.0000000000"
*MEAS_COND_AXIS_POSITION-22 "10.0mm"
*MEAS_COND_AXIS_POSITION-23 "None"
*MEAS_COND_AXIS_POSITION-24 "None"
*MEAS_COND_AXIS_POSITION-25 "1.000mm"
*MEAS_COND_AXIS_POSITION-26 "1.000mm"
*MEAS_COND_AXIS_POSITION-27 "PSA_open"
*MEAS_COND_AXIS_POSITION-28 "Soller_slit_5.0deg"
*MEAS_COND_AXIS_POSITION-29 "None"
*MEAS_COND_AXIS_POSITION-30 "1.0000000000"
*MEAS_COND_AXIS_POSITION-31 "1.0000000000"
*MEAS_COND_AXIS_POSITION-32 "0.0259400000"
*MEAS_COND_AXIS_POSITION-33 "1/10000"
*MEAS_COND_AXIS_POSITION-34 "None"
*MEAS_COND_AXIS_POSITION-35 "None"
*MEAS_COND_AXIS_POSITION-36 "19.9950000000"
*MEAS_COND_AXIS_POSITION-37 "None"
*MEAS_COND_AXIS_POSITION-38 "671.0000000000"
*MEAS_COND_AXIS_POSITION-39 "560.0000000000"
*MEAS_COND_AXIS_UNIT-0 "deg"
*MEAS_COND_AXIS_UNIT-1 "deg"
*MEAS_COND_AXIS_UNIT-2 "deg"
*MEAS_COND_AXIS_UNIT-3 "deg"
*MEAS_COND_AXIS_UNIT-4 "mm"
*MEAS_COND_AXIS_UNIT-5 "deg"
*MEAS_COND_AXIS_UNIT-6 "deg"
*MEAS_COND_AXIS_UNIT-7 "deg"
*MEAS_COND_AXIS_UNIT-8 "deg"
*MEAS_COND_AXIS_UNIT-9 "deg"
*MEAS_COND_AXIS_UNIT-10 "deg"
*MEAS_COND_AXIS_UNIT-11 "deg"
*MEAS_COND_AXIS_UNIT-12 "deg"
*MEAS_COND_AXIS_UNIT-13 "deg"
*MEAS_COND_AXIS_UNIT-14 "mm"
*MEAS_COND_AXIS_UNIT-15 ""
*MEAS_COND_AXIS_UNIT-16 "pulse"
*MEAS_COND_AXIS_UNIT-17 ""
*MEAS_COND_AXIS_UNIT-18 ""
*MEAS_COND_AXIS_UNIT-19 "mm"
*MEAS_COND_AXIS_UNIT-20 "mm"
*MEAS_COND_AXIS_UNIT-21 ""
*MEAS_COND_AXIS_UNIT-22 ""
*MEAS_COND_AXIS_UNIT-23 ""
*MEAS_COND_AXIS_UNIT-24 ""
*MEAS_COND_AXIS_UNIT-25 ""
*MEAS_COND_AXIS_UNIT-26 ""
*MEAS_COND_AXIS_UNIT-27 ""
*MEAS_COND_AXIS_UNIT-28 ""
*MEAS_COND_AXIS_UNIT-29 ""
*MEAS_COND_AXIS_UNIT-30 "mm"
*MEAS_COND_AXIS_UNIT-31 "mm"
*MEAS_COND_AXIS_UNIT-32 "mm"
*MEAS_COND_AXIS_UNIT-33 ""
*MEAS_COND_AXIS_UNIT-34 ""
*MEAS_COND_AXIS_UNIT-35 ""
*MEAS_COND_AXIS_UNIT-36 "deg"
*MEAS_COND_AXIS_UNIT-37 ""
*MEAS_COND_AXIS_UNIT-38 "V"
*MEAS_COND_AXIS_UNIT-39 "mV"
*MEAS_COND_COUNTER_CNTLOSS_CORR "1.0000000000"
*MEAS_COND_COUNTER_PHABASE "560.0000000000"
*MEAS_COND_COUNTER_PHAWINDOW "878.7500000000"
*MEAS_COND_COUNTER_PHA_UNIT "mV"
*MEAS_COND_COUNTER_TAUDIFF "0.2195060000"
*MEAS_COND_COUNTER_TAUINT "0.8147800000"
*MEAS_COND_IRRADIATION_MODE "OFF"
*MEAS_COND_IRRADIATION_WIDTH ""
*MEAS_COND_OPT_ATTR "Medium resolution parallel beam/RS"
*MEAS_COND_OPT_NAME "@Medium resolution PB"
*MEAS_COND_UNSYMMETRIC_MODE "OFF"
*MEAS_COND_XG_CURRENT "100.0000000000"
*MEAS_COND_XG_VOLTAGE "40.0000000000"
*MEAS_COND_XG_WAVE_TYPE "Ka"
*MEAS_DATA_COUNT "6001.0000000000"
*MEAS_SCAN_AXIS_X "2-Theta/Omega"
*MEAS_SCAN_AXIS_X_INTERNAL "TwoThetaOmega"
*MEAS_SCAN_END_TIME "12/11/25 16:27:25"
*MEAS_SCAN_MODE "CONTINUOUS"
*MEAS_SCAN_MONITOR "0"
*MEAS_SCAN_RESOLUTION_X "0.0002"
*MEAS_SCAN_SPEED "12.000000"
*MEAS_SCAN_SPEED_UNIT "deg/min"
*MEAS_SCAN_SPEED_USER "12.0000"
*MEAS_SCAN_START "20.0000000000"
*MEAS_SCAN_START_TIME "12/11/25 16:22:18"
*MEAS_SCAN_STEP "0.0100000000"
*MEAS_SCAN_STOP "80.0000000000"
*MEAS_SCAN_UNIT_X "deg"
*MEAS_SCAN_UNIT_Y "counts"
*RAS_HEADER_END
*RAS_INT_START
20.0000 147.0000 1.0000
20.0100 111.0000 1.0000
20.0200 133.0000 1.0000
20.0300 136.0000 1.0000
20.0400 110.0000 1.0000
20.0500 157.0000 1.0000
20.0600 138.0000 1.0000
20.0700 117.0000 1.0000
20.0800 129.0000 1.0000
20.0900 120.0000 1.0000
20.1000 144.0000 1.0000
20.1100 130.0000 1.0000
20.1200 153.0000 1.0000
20.1300 155.0000 1.0000
20.1400 140.0000 1.0000
20.1500 145.0000 1.0000
20.1600 128.0000 1.0000
20.1700 135.0000 1.0000
20.1800 145.0000 1.0000
20.1900 136.0000 1.0000
20.2000 133.0000 1.0000
20.2100 134.0000 1.0000
20.2200 147.0000 1.0000
20.2300 121.0000 1.0000
20.2400 137.0000 1.0000
20.2500 121.0000 1.0000
20.2600 145.0000 1.0000
20.2700 120.0000 1.0000
20.2800 132.0000 1.0000
20.2900 149.0000 1.0000
20.3000 151.0000 1.0000
20.3100 121.0000 1.0000
20.3200 121.0000 1.0000
20.3300 140.0000 1.0000
20.3400 122.0000 1.0000
20.3500 148.0000 1.0000
20.3600 133.0000 1.0000
20.3700 134.0000 1.0000
20.3800 148.0000 1.0000
20.3900 136.0000 1.0000
20.4000 142.0000 1.0000
20.4100 125.0000 1.0000
20.4200 131.0000 1.0000
20.4300 127.0000 1.0000
20.4400 129.0000 1.0000
20.4500 112.0000 1.0000
20.4600 142.0000 1.0000
20.4700 142.0000 1.0000
20.4800 132.0000 1.0000
20.4900 128.0000 1.0000
20.5000 139.0000 1.0000
20.5100 145.0000 1.0000
20.5200 127.0000 1.0000
20.5300 132.0000 1.0000
20.5400 132.0000 1.0000
20.5500 133.0000 1.0000
20.5600 136.0000 1.0000
20.5700 116.0000 1.0000
20.5800 130.0000 1.0000
20.5900 146.0000 1.0000
20.6000 137.0000 1.0000
20.6100 167.0000 1.0000
20.6200 132.0000 1.0000
20.6300 138.0000 1.0000
20.6400 118.0000 1.0000
20.6500 117.0000 1.0000
20.6600 143.0000 1.0000
20.6700 116.0000 1.0000
20.6800 125.0000 1.0000
20.6900 132.0000 1.0000
20.7000 129.0000 1.0000
20.7100 120.0000 1.0000
20.7200 143.0000 1.0000
20.7300 122.0000 1.0000
20.7400 147.0000 1.0000
20.7500 125.0000 1.0000
20.7600 115.0000 1.0000
20.7700 130.0000 1.0000
20.7800 167.0000 1.0000
20.7900 150.0000 1.0000
20.8000 160.0000 1.0000
20.8100 152.0000 1.0000
20.8200 132.0000 1.0000
20.8300 119.0000 1.0000
20.8400 132.0000 1.0000
20.8500 146.0000 1.0000
20.8600 133.0000 1.0000
20.8700 134.0000 1.0000
20.8800 137.0000 1.0000
20.8900 138.0000 1.0000
20.9000 133.0000 1.0000
20.9100 125.0000 1.0000
20.9200 128.0000 1.0000
20.9300 145.0000 1.0000
20.9400 118.0000 1.0000
20.9500 118.0000 1.0000
20.9600 126.0000 1.0000
20.9700 143.0000 1.0000
20.9800 142.0000 1.0000
20.9900 133.0000 1.0000
21.0000 126.0000 1.0000
21.0100 144.0000 1.0000
21.0200 133.0000 1.0000
21.0300 120.0000 1.0000
21.0400 133.0000 1.0000
21.0500 142.0000 1.0000
21.0600 116.0000 1.0000
21.0700 150.0000 1.0000
21.0800 121.0000 1.0000
21.0900 137.0000 1.0000
21.1000 147.0000 1.0000
21.1100 139.0000 1.0000
21.1200 145.0000 1.0000
21.1300 138.0000 1.0000
21.1400 130.0000 1.0000
21.1500 141.0000 1.0000
21.1600 136.0000 1.0000
21.1700 148.0000 1.0000
21.1800 112.0000 1.0000
21.1900 144.0000 1.0000
21.2000 129.0000 1.0000
21.2100 140.0000 1.0000
21.2200 134.0000 1.0000
21.2300 145.0000 1.0000
21.2400 126.0000 1.0000
21.2500 125.0000 1.0000
21.2600 125.0000 1.0000
21.2700 140.0000 1.0000
21.2800 126.0000 1.0000
21.2900 136.0000 1.0000
21.3000 147.0000 1.0000
21.3100 125.0000 1.0000
21.3200 143.0000 1.0000
21.3300 150.0000 1.0000
21.3400 136.0000 1.0000
21.3500 138.0000 1.0000
21.3600 126.0000 1.0000
21.3700 128.0000 1.0000
21.3800 131.0000 1.0000
21.3900 129.0000 1.0000
21.4000 134.0000 1.0000
21.4100 129.0000 1.0000
21.4200 143.0000 1.0000
21.4300 121.0000 1.0000
21.4400 147.0000 1.0000
21.4500 129.0000 1.0000
21.4600 124.0000 1.0000
21.4700 116.0000 1.0000
21.4800 133.0000 1.0000
21.4900 120.0000 1.0000
21.5000 144.0000 1.0000
21.5100 141.0000 1.0000
21.5200 139.0000 1.0000
21.5300 126.0000 1.0000
21.5400 131.0000 1.0000
21.5500 142.0000 1.0000
21.5600 136.0000 1.0000
21.5700 144.0000 1.0000
21.5800 148.0000 1.0000
21.5900 124.0000 1.0000
21.6000 148.0000 1.0000
21.6100 151.0000 1.0000
21.6200 158.0000 1.0000
21.6300 138.0000 1.0000
21.6400 150.0000 1.0000
21.6500 135.0000 1.0000
21.6600 136.0000 1.0000
21.6700 122.0000 1.0000
21.6800 111.0000 1.0000
21.6900 136.0000 1.0000
21.7000 130.0000 1.0000
21.7100 137.0000 1.0000
21.7200 148.0000 1.0000
21.7300 140.0000 1.0000
21.7400 138.0000 1.0000
21.7500 126.0000 1.0000
21.7600 131.0000 1.0000
21.7700 160.0000 1.0000
21.7800 144.0000 1.0000
21.7900 125.0000 1.0000
21.8000 130.0000 1.0000
21.8100 141.0000 1.0000
21.8200 127.0000 1.0000
21.8300 152.0000 1.0000
21.8400 150.0000 1.0000
21.8500 133.0000 1.0000
21.8600 120.0000 1.0000
21.8700 124.0000 1.0000
21.8800 129.0000 1.0000
21.8900 142.0000 1.0000
21.9000 122.0000 1.0000
21.9100 121.0000 1.0000
21.9200 138.0000 1.0000
21.9300 136.0000 1.0000
21.9400 140.0000 1.0000
21.9500 127.0000 1.0000
21.9600 127.0000 1.0000
21.9700 144.0000 1.0000
21.9800 113.0000 1.0000
21.9900 141.0000 1.0000
22.0000 140.0000 1.0000
22.0100 138.0000 1.0000
22.0200 146.0000 1.0000
22.0300 117.0000 1.0000
22.0400 117.0000 1.0000
22.0500 129.0000 1.0000
22.0600 140.0000 1.0000
22.0700 136.0000 1.0000
22.0800 151.0000 1.0000
22.0900 130.0000 1.0000
22.1000 128.0000 1.0000
22.1100 139.0000 1.0000
22.1200 134.0000 1.0000
22.1300 144.0000 1.0000
22.1400 150.0000 1.0000
22.1500 141.0000 1.0000
22.1600 122.0000 1.0000
22.1700 136.0000 1.0000
22.1800 132.0000 1.0000
22.1900 138.0000 1.0000
22.2000 141.0000 1.0000
22.2100 155.0000 1.0000
22.2200 144.0000 1.0000
22.2300 119.0000 1.0000
22.2400 140.0000 1.0000
22.2500 135.0000 1.0000
22.2600 156.0000 1.0000
22.2700 141.0000 1.0000
22.2800 130.0000 1.0000
22.2900 152.0000 1.0000
22.3000 151.0000 1.0000
22.3100 136.0000 1.0000
22.3200 142.0000 1.0000
22.3300 139.0000 1.0000
22.3400 128.0000 1.0000
22.3500 136.0000 1.0000
22.3600 154.0000 1.0000
22.3700 120.0000 1.0000
22.3800 120.0000 1.0000
22.3900 140.0000 1.0000
22.4000 102.0000 1.0000
22.4100 134.0000 1.0000
22.4200 134.0000 1.0000
22.4300 149.0000 1.0000
22.4400 125.0000 1.0000
22.4500 121.0000 1.0000
22.4600 136.0000 1.0000
22.4700 126.0000 1.0000
22.4800 149.0000 1.0000
22.4900 135.0000 1.0000
22.5000 134.0000 1.0000
22.5100 123.0000 1.0000
22.5200 144.0000 1.0000
22.5300 148.0000 1.0000
22.5400 132.0000 1.0000
22.5500 142.0000 1.0000
22.5600 146.0000 1.0000
22.5700 124.0000 1.0000
22.5800 136.0000 1.0000
22.5900 133.0000 1.0000
22.6000 143.0000 1.0000
22.6100 103.0000 1.0000
22.6200 151.0000 1.0000
22.6300 112.0000 1.0000
22.6400 148.0000 1.0000
22.6500 136.0000 1.0000
22.6600 138.0000 1.0000
22.6700 157.0000 1.0000
22.6800 143.0000 1.0000
22.6900 125.0000 1.0000
22.7000 123.0000 1.0000
22.7100 152.0000 1.0000
22.7200 114.0000 1.0000
22.7300 115.0000 1.0000
22.7400 124.0000 1.0000
22.7500 135.0000 1.0000
22.7600 140.0000 1.0000
22.7700 133.0000 1.0000
22.7800 142.0000 1.0000
22.7900 131.0000 1.0000
22.8000 124.0000 1.0000
22.8100 141.0000 1.0000
22.8200 137.0000 1.0000
22.8300 128.0000 1.0000
22.8400 129.0000 1.0000
22.8500 134.0000 1.0000
22.8600 135.0000 1.0000
22.8700 136.0000 1.0000
22.8800 118.0000 1.0000
22.8900 126.0000 1.0000
22.9000 133.0000 1.0000
22.9100 149.0000 1.0000
22.9200 143.0000 1.0000
22.9300 128.0000 1.0000
22.9400 153.0000 1.0000
22.9500 131.0000 1.0000
22.9600 141.0000 1.0000
22.9700 139.0000 1.0000
22.9800 135.0000 1.0000
22.9900 145.0000 1.0000
23.0000 141.0000 1.0000
23.0100 135.0000 1.0000
23.0200 126.0000 1.0000
23.0300 124.0000 1.0000
23.0400 126.0000 1.0000
23.0500 117.0000 1.0000
23.0600 142.0000 1.0000
23.0700 140.0000 1.0000
23.0800 146.0000 1.0000
23.0900 146.0000 1.0000
23.1000 132.0000 1.0000
23.1100 128.0000 1.0000
23.1200 136.0000 1.0000
23.1300 114.0000 1.0000
23.1400 140.0000 1.0000
23.1500 156.0000 1.0000
23.1600 130.0000 1.0000
23.1700 139.0000 1.0000
23.1800 151.0000 1.0000
23.1900 113.0000 1.0000
23.2000 130.0000 1.0000
23.2100 132.0000 1.0000
23.2200 155.0000 1.0000
23.2300 124.0000 1.0000
23.2400 139.0000 1.0000
23.2500 130.0000 1.0000
23.2600 128.0000 1.0000
23.2700 120.0000 1.0000
23.2800 138.0000 1.0000
23.2900 132.0000 1.0000
23.3000 144.0000 1.0000
23.3100 121.0000 1.0000
23.3200 143.0000 1.0000
23.3300 136.0000 1.0000
23.3400 135.0000 1.0000
23.3500 106.0000 1.0000
23.3600 135.0000 1.0000
23.3700 133.0000 1.0000
23.3800 129.0000 1.0000
23.3900 144.0000 1.0000
23.4000 119.0000 1.0000
23.4100 164.0000 1.0000
23.4200 122.0000 1.0000
23.4300 136.0000 1.0000
23.4400 149.0000 1.0000
23.4500 118.0000 1.0000
23.4600 127.0000 1.0000
23.4700 135.0000 1.0000
23.4800 129.0000 1.0000
23.4900 116.0000 1.0000
23.5000 120.0000 1.0000
23.5100 170.0000 1.0000
23.5200 139.0000 1.0000
23.5300 131.0000 1.0000
23.5400 138.0000 1.0000
23.5500 143.0000 1.0000
23.5600 127.0000 1.0000
23.5700 133.0000 1.0000
23.5800 165.0000 1.0000
23.5900 144.0000 1.0000
23.6000 134.0000 1.0000
23.6100 122.0000 1.0000
23.6200 146.0000 1.0000
23.6300 151.0000 1.0000
23.6400 145.0000 1.0000
23.6500 137.0000 1.0000
23.6600 119.0000 1.0000
23.6700 158.0000 1.0000
23.6800 132.0000 1.0000
23.6900 125.0000 1.0000
23.7000 117.0000 1.0000
23.7100 145.0000 1.0000
23.7200 128.0000 1.0000
23.7300 152.0000 1.0000
23.7400 143.0000 1.0000
23.7500 135.0000 1.0000
23.7600 148.0000 1.0000
23.7700 129.0000 1.0000
23.7800 134.0000 1.0000
23.7900 141.0000 1.0000
23.8000 136.0000 1.0000
23.8100 148.0000 1.0000
23.8200 126.0000 1.0000
23.8300 113.0000 1.0000
23.8400 118.0000 1.0000
23.8500 138.0000 1.0000
23.8600 158.0000 1.0000
23.8700 132.0000 1.0000
23.8800 128.0000 1.0000
23.8900 115.0000 1.0000
23.9000 145.0000 1.0000
23.9100 125.0000 1.0000
23.9200 130.0000 1.0000
23.9300 125.0000 1.0000
23.9400 149.0000 1.0000
23.9500 113.0000 1.0000
23.9600 128.0000 1.0000
23.9700 130.0000 1.0000
23.9800 126.0000 1.0000
23.9900 143.0000 1.0000
24.0000 125.0000 1.0000
24.0100 125.0000 1.0000
24.0200 133.0000 1.0000
24.0300 132.0000 1.0000
24.0400 135.0000 1.0000
24.0500 125.0000 1.0000
24.0600 127.0000 1.0000
24.0700 138.0000 1.0000
24.0800 124.0000 1.0000
24.0900 140.0000 1.0000
24.1000 138.0000 1.0000
24.1100 130.0000 1.0000
24.1200 120.0000 1.0000
24.1300 124.0000 1.0000
24.1400 134.0000 1.0000
24.1500 147.0000 1.0000
24.1600 138.0000 1.0000
24.1700 145.0000 1.0000
24.1800 128.0000 1.0000
24.1900 132.0000 1.0000
24.2000 136.0000 1.0000
24.2100 122.0000 1.0000
24.2200 144.0000 1.0000
24.2300 131.0000 1.0000
24.2400 138.0000 1.0000
24.2500 123.0000 1.0000
24.2600 149.0000 1.0000
24.2700 151.0000 1.0000
24.2800 133.0000 1.0000
24.2900 154.0000 1.0000
24.3000 141.0000 1.0000
24.3100 143.0000 1.0000
24.3200 139.0000 1.0000
24.3300 154.0000 1.0000
24.3400 129.0000 1.0000
24.3500 108.0000 1.0000
24.3600 130.0000 1.0000
24.3700 146.0000 1.0000
24.3800 159.0000 1.0000
24.3900 139.0000 1.0000
24.4000 122.0000 1.0000
24.4100 128.0000 1.0000
24.4200 146.0000 1.0000
24.4300 146.0000 1.0000
24.4400 149.0000 1.0000
24.4500 119.0000 1.0000
24.4600 117.0000 1.0000
24.4700 149.0000 1.0000
24.4800 129.0000 1.0000
24.4900 145.0000 1.0000
24.5000 126.0000 1.0000
24.5100 133.0000 1.0000
24.5200 150.0000 1.0000
24.5300 139.0000 1.0000
24.5400 140.0000 1.0000
24.5500 128.0000 1.0000
24.5600 150.0000 1.0000
24.5700 141.0000 1.0000
24.5800 137.0000 1.0000
24.5900 124.0000 1.0000
24.6000 112.0000 1.0000
24.6100 115.0000 1.0000
24.6200 147.0000 1.0000
24.6300 124.0000 1.0000
24.6400 148.0000 1.0000
24.6500 114.0000 1.0000
24.6600 124.0000 1.0000
24.6700 145.0000 1.0000
24.6800 128.0000 1.0000
24.6900 142.0000 1.0000
24.7000 135.0000 1.0000
24.7100 126.0000 1.0000
24.7200 119.0000 1.0000
24.7300 136.0000 1.0000
24.7400 142.0000 1.0000
24.7500 143.0000 1.0000
24.7600 135.0000 1.0000
24.7700 125.0000 1.0000
24.7800 141.0000 1.0000
24.7900 122.0000 1.0000
24.8000 137.0000 1.0000
24.8100 146.0000 1.0000
24.8200 139.0000 1.0000
24.8300 160.0000 1.0000
24.8400 113.0000 1.0000
24.8500 164.0000 1.0000
24.8600 151.0000 1.0000
24.8700 129.0000 1.0000
24.8800 134.0000 1.0000
24.8900 136.0000 1.0000
24.9000 135.0000 1.0000
24.9100 130.0000 1.0000
24.9200 127.0000 1.0000
24.9300 137.0000 1.0000
24.9400 143.0000 1.0000
24.9500 140.0000 1.0000
24.9600 128.0000 1.0000
24.9700 150.0000 1.0000
24.9800 131.0000 1.0000
24.9900 128.0000 1.0000
25.0000 148.0000 1.0000
25.0100 158.0000 1.0000
25.0200 118.0000 1.0000
25.0300 128.0000 1.0000
25.0400 138.0000 1.0000
25.0500 140.0000 1.0000
25.0600 128.0000 1.0000
25.0700 129.0000 1.0000
25.0800 149.0000 1.0000
25.0900 128.0000 1.0000
25.1000 128.0000 1.0000
25.1100 118.0000 1.0000
25.1200 125.0000 1.0000
25.1300 132.0000 1.0000
25.1400 111.0000 1.0000
25.1500 123.0000 1.0000
25.1600 123.0000 1.0000
25.1700 144.0000 1.0000
25.1800 120.0000 1.0000
25.1900 130.0000 1.0000
25.2000 134.0000 1.0000
25.2100 134.0000 1.0000
25.2200 152.0000 1.0000
25.2300 124.0000 1.0000
25.2400 129.0000 1.0000
25.2500 131.0000 1.0000
25.2600 144.0000 1.0000
25.2700 139.0000 1.0000
25.2800 133.0000 1.0000
25.2900 118.0000 1.0000
25.3000 129.0000 1.0000
25.3100 139.0000 1.0000
25.3200 140.0000 1.0000
25.3300 136.0000 1.0000
25.3400 128.0000 1.0000
25.3500 133.0000 1.0000
25.3600 99.0000 1.0000
25.3700 135.0000 1.0000
25.3800 142.0000 1.0000
25.3900 145.0000 1.0000
25.4000 156.0000 1.0000
25.4100 115.0000 1.0000
25.4200 166.0000 1.0000
25.4300 137.0000 1.0000
25.4400 143.0000 1.0000
25.4500 139.0000 1.0000
25.4600 121.0000 1.0000
25.4700 142.0000 1.0000
25.4800 153.0000 1.0000
25.4900 131.0000 1.0000
25.5000 142.0000 1.0000
25.5100 126.0000 1.0000
25.5200 140.0000 1.0000
25.5300 143.0000 1.0000
25.5400 133.0000 1.0000
25.5500 135.0000 1.0000
25.5600 137.0000 1.0000
25.5700 144.0000 1.0000
25.5800 144.0000 1.0000
25.5900 146.0000 1.0000
25.6000 134.0000 1.0000
25.6100 154.0000 1.0000
25.6200 155.0000 1.0000
25.6300 131.0000 1.0000
25.6400 135.0000 1.0000
25.6500 124.0000 1.0000
25.6600 162.0000 1.0000
25.6700 149.0000 1.0000
25.6800 146.0000 1.0000
25.6900 123.0000 1.0000
25.7000 137.0000 1.0000
25.7100 126.0000 1.0000
25.7200 114.0000 1.0000
25.7300 141.0000 1.0000
25.7400 140.0000 1.0000
25.7500 137.0000 1.0000
25.7600 141.0000 1.0000
25.7700 137.0000 1.0000
25.7800 141.0000 1.0000
25.7900 129.0000 1.0000
25.8000 118.0000 1.0000
25.8100 127.0000 1.0000
25.8200 149.0000 1.0000
25.8300 128.0000 1.0000
25.8400 114.0000 1.0000
25.8500 132.0000 1.0000
25.8600 130.0000 1.0000
25.8700 121.0000 1.0000
25.8800 135.0000 1.0000
25.8900 154.0000 1.0000
25.9000 133.0000 1.0000
25.9100 138.0000 1.0000
25.9200 139.0000 1.0000
25.9300 135.0000 1.0000
25.9400 141.0000 1.0000
25.9500 145.0000 1.0000
25.9600 122.0000 1.0000
25.9700 153.0000 1.0000
25.9800 147.0000 1.0000
25.9900 138.0000 1.0000
26.0000 138.0000 1.0000
26.0100 126.0000 1.0000
26.0200 130.0000 1.0000
26.0300 123.0000 1.0000
26.0400 136.0000 1.0000
26.0500 117.0000 1.0000
26.0600 132.0000 1.0000
26.0700 134.0000 1.0000
26.0800 154.0000 1.0000
26.0900 110.0000 1.0000
26.1000 134.0000 1.0000
26.1100 135.0000 1.0000
26.1200 144.0000 1.0000
26.1300 126.0000 1.0000
26.1400 137.0000 1.0000
26.1500 136.0000 1.0000
26.1600 131.0000 1.0000
26.1700 112.0000 1.0000
26.1800 127.0000 1.0000
26.1900 140.0000 1.0000
26.2000 134.0000 1.0000
26.2100 165.0000 1.0000
26.2200 136.0000 1.0000
26.2300 165.0000 1.0000
26.2400 139.0000 1.0000
26.2500 136.0000 1.0000
26.2600 140.0000 1.0000
26.2700 131.0000 1.0000
26.2800 125.0000 1.0000
26.2900 142.0000 1.0000
26.3000 140.0000 1.0000
26.3100 136.0000 1.0000
26.3200 138.0000 1.0000
26.3300 137.0000 1.0000
26.3400 123.0000 1.0000
26.3500 124.0000 1.0000
26.3600 157.0000 1.0000
26.3700 130.0000 1.0000
26.3800 134.0000 1.0000
26.3900 126.0000 1.0000
26.4000 131.0000 1.0000
26.4100 127.0000 1.0000
26.4200 135.0000 1.0000
26.4300 139.0000 1.0000
26.4400 117.0000 1.0000
26.4500 125.0000 1.0000
26.4600 148.0000 1.0000
26.4700 127.0000 1.0000
26.4800 136.0000 1.0000
26.4900 124.0000 1.0000
26.5000 146.0000 1.0000
26.5100 142.0000 1.0000
26.5200 135.0000 1.0000
26.5300 141.0000 1.0000
26.5400 123.0000 1.0000
26.5500 143.0000 1.0000
26.5600 138.0000 1.0000
26.5700 130.0000 1.0000
26.5800 129.0000 1.0000
26.5900 131.0000 1.0000
26.6000 127.0000 1.0000
26.6100 144.0000 1.0000
26.6200 125.0000 1.0000
26.6300 117.0000 1.0000
26.6400 126.0000 1.0000
26.6500 157.0000 1.0000
26.6600 151.0000 1.0000
26.6700 144.0000 1.0000
26.6800 139.0000 1.0000
26.6900 143.0000 1.0000
26.7000 126.0000 1.0000
26.7100 152.0000 1.0000
26.7200 124.0000 1.0000
26.7300 127.0000 1.0000
26.7400 126.0000 1.0000
26.7500 137.0000 1.0000
26.7600 146.0000 1.0000
26.7700 121.0000 1.0000
26.7800 141.0000 1.0000
26.7900 131.0000 1.0000
26.8000 130.0000 1.0000
26.8100 130.0000 1.0000
26.8200 131.0000 1.0000
26.8300 135.0000 1.0000
26.8400 155.0000 1.0000
26.8500 132.0000 1.0000
26.8600 133.0000 1.0000
26.8700 119.0000 1.0000
26.8800 125.0000 1.0000
26.8900 144.0000 1.0000
26.9000 149.0000 1.0000
26.9100 138.0000 1.0000
26.9200 145.0000 1.0000
26.9300 132.0000 1.0000
26.9400 109.0000 1.0000
26.9500 136.0000 1.0000
26.9600 122.0000 1.0000
26.9700 134.0000 1.0000
26.9800 140.0000 1.0000
26.9900 122.0000 1.0000
27.0000 135.0000 1.0000
27.0100 129.0000 1.0000
27.0200 137.0000 1.0000
27.0300 153.0000 1.0000
27.0400 141.0000 1.0000
27.0500 109.0000 1.0000
27.0600 115.0000 1.0000
27.0700 155.0000 1.0000
27.0800 121.0000 1.0000
27.0900 99.0000 1.0000
27.1000 143.0000 1.0000
27.1100 132.0000 1.0000
27.1200 135.0000 1.0000
27.1300 139.0000 1.0000
27.1400 143.0000 1.0000
27.1500 145.0000 1.0000
27.1600 120.0000 1.0000
27.1700 159.0000 1.0000
27.1800 150.0000 1.0000
27.1900 147.0000 1.0000
27.2000 107.0000 1.0000
27.2100 141.0000 1.0000
27.2200 157.0000 1.0000
27.2300 125.0000 1.0000
27.2400 115.0000 1.0000
27.2500 134.0000 1.0000
27.2600 131.0000 1.0000
27.2700 130.0000 1.0000
27.2800 157.0000 1.0000
27.2900 140.0000 1.0000
27.3000 147.0000 1.0000
27.3100 135.0000 1.0000
27.3200 117.0000 1.0000
27.3300 133.0000 1.0000
27.3400 117.0000 1.0000
27.3500 140.0000 1.0000
27.3600 128.0000 1.0000
27.3700 126.0000 1.0000
27.3800 132.0000 1.0000
27.3900 119.0000 1.0000
27.4000 147.0000 1.0000
27.4100 130.0000 1.0000
27.4200 133.0000 1.0000
27.4300 118.0000 1.0000
27.4400 147.0000 1.0000
27.4500 143.0000 1.0000
27.4600 142.0000 1.0000
27.4700 130.0000 1.0000
27.4800 149.0000 1.0000
27.4900 126.0000 1.0000
27.5000 141.0000 1.0000
27.5100 140.0000 1.0000
27.5200 115.0000 1.0000
27.5300 110.0000 1.0000
27.5400 127.0000 1.0000
27.5500 142.0000 1.0000
27.5600 139.0000 1.0000
27.5700 122.0000 1.0000
27.5800 141.0000 1.0000
27.5900 128.0000 1.0000
27.6000 136.0000 1.0000
27.6100 120.0000 1.0000
27.6200 142.0000 1.0000
27.6300 136.0000 1.0000
27.6400 123.0000 1.0000
27.6500 141.0000 1.0000
27.6600 150.0000 1.0000
27.6700 130.0000 1.0000
27.6800 120.0000 1.0000
27.6900 129.0000 1.0000
27.7000 157.0000 1.0000
27.7100 155.0000 1.0000
27.7200 133.0000 1.0000
27.7300 117.0000 1.0000
27.7400 125.0000 1.0000
27.7500 133.0000 1.0000
27.7600 150.0000 1.0000
27.7700 113.0000 1.0000
27.7800 154.0000 1.0000
27.7900 157.0000 1.0000
27.8000 135.0000 1.0000
27.8100 135.0000 1.0000
27.8200 131.0000 1.0000
27.8300 143.0000 1.0000
27.8400 130.0000 1.0000
27.8500 124.0000 1.0000
27.8600 137.0000 1.0000
27.8700 131.0000 1.0000
27.8800 131.0000 1.0000
27.8900 126.0000 1.0000
27.9000 105.0000 1.0000
27.9100 121.0000 1.0000
27.9200 116.0000 1.0000
27.9300 159.0000 1.0000
27.9400 134.0000 1.0000
27.9500 140.0000 1.0000
27.9600 139.0000 1.0000
27.9700 122.0000 1.0000
27.9800 153.0000 1.0000
27.9900 111.0000 1.0000
28.0000 112.0000 1.0000
28.0100 143.0000 1.0000
28.0200 124.0000 1.0000
28.0300 137.0000 1.0000
28.0400 136.0000 1.0000
28.0500 146.0000 1.0000
28.0600 136.0000 1.0000
28.0700 128.0000 1.0000
28.0800 130.0000 1.0000
28.0900 130.0000 1.0000
28.1000 137.0000 1.0000
28.1100 156.0000 1.0000
28.1200 114.0000 1.0000
28.1300 120.0000 1.0000
28.1400 152.0000 1.0000
28.1500 140.0000 1.0000
28.1600 147.0000 1.0000
28.1700 138.0000 1.0000
28.1800 116.0000 1.0000
28.1900 142.0000 1.0000
28.2000 119.0000 1.0000
28.2100 129.0000 1.0000
28.2200 139.0000 1.0000
28.2300 146.0000 1.0000
28.2400 124.0000 1.0000
28.2500 141.0000 1.0000
28.2600 139.0000 1.0000
28.2700 127.0000 1.0000
28.2800 148.0000 1.0000
28.2900 124.0000 1.0000
28.3000 136.0000 1.0000
28.3100 135.0000 1.0000
28.3200 129.0000 1.0000
28.3300 140.0000 1.0000
28.3400 141.0000 1.0000
28.3500 104.0000 1.0000
28.3600 124.0000 1.0000
28.3700 131.0000 1.0000
28.3800 145.0000 1.0000
28.3900 136.0000 1.0000
28.4000 136.0000 1.0000
28.4100 125.0000 1.0000
28.4200 130.0000 1.0000
28.4300 122.0000 1.0000
28.4400 121.0000 1.0000
28.4500 142.0000 1.0000
28.4600 131.0000 1.0000
28.4700 146.0000 1.0000
28.4800 136.0000 1.0000
28.4900 141.0000 1.0000
28.5000 116.0000 1.0000
28.5100 121.0000 1.0000
28.5200 126.0000 1.0000
28.5300 147.0000 1.0000
28.5400 134.0000 1.0000
28.5500 126.0000 1.0000
28.5600 145.0000 1.0000
28.5700 151.0000 1.0000
28.5800 134.0000 1.0000
28.5900 139.0000 1.0000
28.6000 135.0000 1.0000
28.6100 140.0000 1.0000
28.6200 122.0000 1.0000
28.6300 145.0000 1.0000
28.6400 129.0000 1.0000
28.6500 142.0000 1.0000
28.6600 154.0000 1.0000
28.6700 148.0000 1.0000
28.6800 134.0000 1.0000
28.6900 125.0000 1.0000
28.7000 120.0000 1.0000
28.7100 131.0000 1.0000
28.7200 126.0000 1.0000
28.7300 126.0000 1.0000
28.7400 136.0000 1.0000
28.7500 153.0000 1.0000
28.7600 144.0000 1.0000
28.7700 131.0000 1.0000
28.7800 135.0000 1.0000
28.7900 126.0000 1.0000
28.8000 142.0000 1.0000
28.8100 149.0000 1.0000
28.8200 139.0000 1.0000
28.8300 125.0000 1.0000
28.8400 127.0000 1.0000
28.8500 106.0000 1.0000
28.8600 137.0000 1.0000
28.8700 130.0000 1.0000
28.8800 111.0000 1.0000
28.8900 133.0000 1.0000
28.9000 132.0000 1.0000
28.9100 122.0000 1.0000
28.9200 141.0000 1.0000
28.9300 150.0000 1.0000
28.9400 130.0000 1.0000
28.9500 143.0000 1.0000
28.9600 127.0000 1.0000
28.9700 164.0000 1.0000
28.9800 125.0000 1.0000
28.9900 114.0000 1.0000
29.0000 169.0000 1.0000
29.0100 136.0000 1.0000
29.0200 152.0000 1.0000
29.0300 128.0000 1.0000
29.0400 117.0000 1.0000
29.0500 130.0000 1.0000
29.0600 151.0000 1.0000
29.0700 130.0000 1.0000
29.0800 133.0000 1.0000
29.0900 121.0000 1.0000
29.1000 127.0000 1.0000
29.1100 150.0000 1.0000
29.1200 117.0000 1.0000
29.1300 120.0000 1.0000
29.1400 138.0000 1.0000
29.1500 143.0000 1.0000
29.1600 135.0000 1.0000
29.1700 141.0000 1.0000
29.1800 156.0000 1.0000
29.1900 146.0000 1.0000
29.2000 137.0000 1.0000
29.2100 128.0000 1.0000
29.2200 116.0000 1.0000
29.2300 149.0000 1.0000
29.2400 145.0000 1.0000
29.2500 126.0000 1.0000
29.2600 129.0000 1.0000
29.2700 135.0000 1.0000
29.2800 130.0000 1.0000
29.2900 139.0000 1.0000
29.3000 139.0000 1.0000
29.3100 135.0000 1.0000
29.3200 135.0000 1.0000
29.3300 119.0000 1.0000
29.3400 133.0000 1.0000
29.3500 142.0000 1.0000
29.3600 142.0000 1.0000
29.3700 119.0000 1.0000
29.3800 136.0000 1.0000
29.3900 128.0000 1.0000
29.4000 117.0000 1.0000
29.4100 154.0000 1.0000
29.4200 123.0000 1.0000
29.4300 133.0000 1.0000
29.4400 133.0000 1.0000
29.4500 136.0000 1.0000
29.4600 144.0000 1.0000
29.4700 150.0000 1.0000
29.4800 145.0000 1.0000
29.4900 127.0000 1.0000
29.5000 138.0000 1.0000
29.5100 144.0000 1.0000
29.5200 123.0000 1.0000
29.5300 109.0000 1.0000
29.5400 126.0000 1.0000
29.5500 140.0000 1.0000
29.5600 141.0000 1.0000
29.5700 137.0000 1.0000
29.5800 143.0000 1.0000
29.5900 146.0000 1.0000
29.6000 128.0000 1.0000
29.6100 116.0000 1.0000
29.6200 130.0000 1.0000
29.6300 131.0000 1.0000
29.6400 131.0000 1.0000
29.6500 129.0000 1.0000
29.6600 111.0000 1.0000
29.6700 144.0000 1.0000
29.6800 129.0000 1.0000
29.6900 148.0000 1.0000
29.7000 164.0000 1.0000
29.7100 121.0000 1.0000
29.7200 127.0000 1.0000
29.7300 137.0000 1.0000
29.7400 120.0000 1.0000
29.7500 129.0000 1.0000
29.7600 145.0000 1.0000
29.7700 124.0000 1.0000
29.7800 135.0000 1.0000
29.7900 126.0000 1.0000
29.8000 131.0000 1.0000
29.8100 139.0000 1.0000
29.8200 152.0000 1.0000
29.8300 121.0000 1.0000
29.8400 144.0000 1.0000
29.8500 156.0000 1.0000
29.8600 130.0000 1.0000
29.8700 138.0000 1.0000
29.8800 135.0000 1.0000
29.8900 140.0000 1.0000
29.9000 147.0000 1.0000
29.9100 130.0000 1.0000
29.9200 131.0000 1.0000
29.9300 130.0000 1.0000
29.9400 141.0000 1.0000
29.9500 138.0000 1.0000
29.9600 148.0000 1.0000
29.9700 130.0000 1.0000
29.9800 124.0000 1.0000
29.9900 125.0000 1.0000
30.0000 137.0000 1.0000
30.0100 146.0000 1.0000
30.0200 126.0000 1.0000
30.0300 147.0000 1.0000
30.0400 128.0000 1.0000
30.0500 124.0000 1.0000
30.0600 148.0000 1.0000
30.0700 125.0000 1.0000
30.0800 138.0000 1.0000
30.0900 127.0000 1.0000
30.1000 133.0000 1.0000
30.1100 171.0000 1.0000
30.1200 143.0000 1.0000
30.1300 113.0000 1.0000
30.1400 140.0000 1.0000
30.1500 154.0000 1.0000
30.1600 141.0000 1.0000
30.1700 139.0000 1.0000
30.1800 135.0000 1.0000
30.1900 153.0000 1.0000
30.2000 127.0000 1.0000
30.2100 162.0000 1.0000
30.2200 158.0000 1.0000
30.2300 119.0000 1.0000
30.2400 126.0000 1.0000
30.2500 151.0000 1.0000
30.2600 127.0000 1.0000
30.2700 132.0000 1.0000
30.2800 139.0000 1.0000
30.2900 147.0000 1.0000
30.3000 124.0000 1.0000
30.3100 124.0000 1.0000
30.3200 144.0000 1.0000
30.3300 118.0000 1.0000
30.3400 136.0000 1.0000
30.3500 153.0000 1.0000
30.3600 128.0000 1.0000
30.3700 118.0000 1.0000
30.3800 136.0000 1.0000
30.3900 149.0000 1.0000
30.4000 120.0000 1.0000
30.4100 123.0000 1.0000
30.4200 129.0000 1.0000
30.4300 127.0000 1.0000
30.4400 152.0000 1.0000
30.4500 131.0000 1.0000
30.4600 140.0000 1.0000
30.4700 155.0000 1.0000
30.4800 138.0000 1.0000
30.4900 144.0000 1.0000
30.5000 130.0000 1.0000
30.5100 126.0000 1.0000
30.5200 139.0000 1.0000
30.5300 136.0000 1.0000
30.5400 122.0000 1.0000
30.5500 107.0000 1.0000
30.5600 146.0000 1.0000
30.5700 128.0000 1.0000
30.5800 132.0000 1.0000
30.5900 128.0000 1.0000
30.6000 147.0000 1.0000
30.6100 141.0000 1.0000
30.6200 130.0000 1.0000
30.6300 156.0000 1.0000
30.6400 122.0000 1.0000
30.6500 127.0000 1.0000
30.6600 157.0000 1.0000
30.6700 140.0000 1.0000
30.6800 146.0000 1.0000
30.6900 142.0000 1.0000
30.7000 139.0000 1.0000
30.7100 137.0000 1.0000
30.7200 136.0000 1.0000
30.7300 120.0000 1.0000
30.7400 140.0000 1.0000
30.7500 128.0000 1.0000
30.7600 149.0000 1.0000
30.7700 129.0000 1.0000
30.7800 139.0000 1.0000
30.7900 132.0000 1.0000
30.8000 147.0000 1.0000
30.8100 141.0000 1.0000
30.8200 135.0000 1.0000
30.8300 124.0000 1.0000
30.8400 125.0000 1.0000
30.8500 135.0000 1.0000
30.8600 146.0000 1.0000
30.8700 137.0000 1.0000
30.8800 118.0000 1.0000
30.8900 147.0000 1.0000
30.9000 132.0000 1.0000
30.9100 137.0000 1.0000
30.9200 127.0000 1.0000
30.9300 140.0000 1.0000
30.9400 133.0000 1.0000
30.9500 134.0000 1.0000
30.9600 154.0000 1.0000
30.9700 142.0000 1.0000
30.9800 126.0000 1.0000
30.9900 166.0000 1.0000
31.0000 152.0000 1.0000
31.0100 132.0000 1.0000
31.0200 136.0000 1.0000
31.0300 145.0000 1.0000
31.0400 118.0000 1.0000
31.0500 126.0000 1.0000
31.0600 137.0000 1.0000
31.0700 135.0000 1.0000
31.0800 137.0000 1.0000
31.0900 128.0000 1.0000
31.1000 146.0000 1.0000
31.1100 133.0000 1.0000
31.1200 148.0000 1.0000
31.1300 143.0000 1.0000
31.1400 151.0000 1.0000
31.1500 116.0000 1.0000
31.1600 138.0000 1.0000
31.1700 133.0000 1.0000
31.1800 149.0000 1.0000
31.1900 125.0000 1.0000
31.2000 151.0000 1.0000
31.2100 149.0000 1.0000
31.2200 138.0000 1.0000
31.2300 118.0000 1.0000
31.2400 144.0000 1.0000
31.2500 135.0000 1.0000
31.2600 152.0000 1.0000
31.2700 152.0000 1.0000
31.2800 142.0000 1.0000
31.2900 131.0000 1.0000
31.3000 128.0000 1.0000
31.3100 142.0000 1.0000
31.3200 139.0000 1.0000
31.3300 121.0000 1.0000
31.3400 141.0000 1.0000
31.3500 139.0000 1.0000
31.3600 133.0000 1.0000
31.3700 143.0000 1.0000
31.3800 144.0000 1.0000
31.3900 128.0000 1.0000
31.4000 136.0000 1.0000
31.4100 160.0000 1.0000
31.4200 138.0000 1.0000
31.4300 154.0000 1.0000
31.4400 146.0000 1.0000
31.4500 127.0000 1.0000
31.4600 140.0000 1.0000
31.4700 138.0000 1.0000
31.4800 122.0000 1.0000
31.4900 146.0000 1.0000
31.5000 121.0000 1.0000
31.5100 133.0000 1.0000
31.5200 125.0000 1.0000
31.5300 116.0000 1.0000
31.5400 147.0000 1.0000
31.5500 126.0000 1.0000
31.5600 132.0000 1.0000
31.5700 126.0000 1.0000
31.5800 150.0000 1.0000
31.5900 141.0000 1.0000
31.6000 149.0000 1.0000
31.6100 161.0000 1.0000
31.6200 133.0000 1.0000
31.6300 133.0000 1.0000
31.6400 125.0000 1.0000
31.6500 126.0000 1.0000
31.6600 135.0000 1.0000
31.6700 129.0000 1.0000
31.6800 129.0000 1.0000
31.6900 133.0000 1.0000
31.7000 138.0000 1.0000
31.7100 130.0000 1.0000
31.7200 126.0000 1.0000
31.7300 132.0000 1.0000
31.7400 142.0000 1.0000
31.7500 134.0000 1.0000
31.7600 128.0000 1.0000
31.7700 136.0000 1.0000
31.7800 122.0000 1.0000
31.7900 135.0000 1.0000
31.8000 133.0000 1.0000
31.8100 152.0000 1.0000
31.8200 145.0000 1.0000
31.8300 133.0000 1.0000
31.8400 142.0000 1.0000
31.8500 144.0000 1.0000
31.8600 129.0000 1.0000
31.8700 146.0000 1.0000
31.8800 137.0000 1.0000
31.8900 145.0000 1.0000
31.9000 140.0000 1.0000
31.9100 138.0000 1.0000
31.9200 132.0000 1.0000
31.9300 124.0000 1.0000
31.9400 153.0000 1.0000
31.9500 131.0000 1.0000
31.9600 118.0000 1.0000
31.9700 111.0000 1.0000
31.9800 128.0000 1.0000
31.9900 137.0000 1.0000
32.0000 120.0000 1.0000
32.0100 150.0000 1.0000
32.0200 124.0000 1.0000
32.0300 130.0000 1.0000
32.0400 147.0000 1.0000
32.0500 139.0000 1.0000
32.0600 147.0000 1.0000
32.0700 132.0000 1.0000
32.0800 129.0000 1.0000
32.0900 140.0000 1.0000
32.1000 143.0000 1.0000
32.1100 146.0000 1.0000
32.1200 135.0000 1.0000
32.1300 161.0000 1.0000
32.1400 118.0000 1.0000
32.1500 129.0000 1.0000
32.1600 133.0000 1.0000
32.1700 136.0000 1.0000
32.1800 125.0000 1.0000
32.1900 163.0000 1.0000
32.2000 147.0000 1.0000
32.2100 134.0000 1.0000
32.2200 141.0000 1.0000
32.2300 124.0000 1.0000
32.2400 147.0000 1.0000
32.2500 151.0000 1.0000
32.2600 123.0000 1.0000
32.2700 127.0000 1.0000
32.2800 123.0000 1.0000
32.2900 141.0000 1.0000
32.3000 116.0000 1.0000
32.3100 140.0000 1.0000
32.3200 145.0000 1.0000
32.3300 152.0000 1.0000
32.3400 130.0000 1.0000
32.3500 131.0000 1.0000
32.3600 135.0000 1.0000
32.3700 132.0000 1.0000
32.3800 160.0000 1.0000
32.3900 111.0000 1.0000
32.4000 138.0000 1.0000
32.4100 126.0000 1.0000
32.4200 139.0000 1.0000
32.4300 128.0000 1.0000
32.4400 138.0000 1.0000
32.4500 138.0000 1.0000
32.4600 128.0000 1.0000
32.4700 111.0000 1.0000
32.4800 158.0000 1.0000
32.4900 148.0000 1.0000
32.5000 137.0000 1.0000
32.5100 134.0000 1.0000
32.5200 124.0000 1.0000
32.5300 136.0000 1.0000
32.5400 136.0000 1.0000
32.5500 149.0000 1.0000
32.5600 141.0000 1.0000
32.5700 152.0000 1.0000
32.5800 127.0000 1.0000
32.5900 136.0000 1.0000
32.6000 142.0000 1.0000
32.6100 138.0000 1.0000
32.6200 157.0000 1.0000
32.6300 136.0000 1.0000
32.6400 135.0000 1.0000
32.6500 138.0000 1.0000
32.6600 121.0000 1.0000
32.6700 162.0000 1.0000
32.6800 134.0000 1.0000
32.6900 152.0000 1.0000
32.7000 126.0000 1.0000
32.7100 142.0000 1.0000
32.7200 120.0000 1.0000
32.7300 133.0000 1.0000
32.7400 141.0000 1.0000
32.7500 140.0000 1.0000
32.7600 136.0000 1.0000
32.7700 141.0000 1.0000
32.7800 138.0000 1.0000
32.7900 157.0000 1.0000
32.8000 126.0000 1.0000
32.8100 145.0000 1.0000
32.8200 122.0000 1.0000
32.8300 155.0000 1.0000
32.8400 128.0000 1.0000
32.8500 143.0000 1.0000
32.8600 146.0000 1.0000
32.8700 158.0000 1.0000
32.8800 129.0000 1.0000
32.8900 127.0000 1.0000
32.9000 127.0000 1.0000
32.9100 135.0000 1.0000
32.9200 158.0000 1.0000
32.9300 126.0000 1.0000
32.9400 133.0000 1.0000
32.9500 145.0000 1.0000
32.9600 121.0000 1.0000
32.9700 123.0000 1.0000
32.9800 134.0000 1.0000
32.9900 141.0000 1.0000
33.0000 130.0000 1.0000
33.0100 146.0000 1.0000
33.0200 141.0000 1.0000
33.0300 120.0000 1.0000
33.0400 135.0000 1.0000
33.0500 129.0000 1.0000
33.0600 135.0000 1.0000
33.0700 133.0000 1.0000
33.0800 127.0000 1.0000
33.0900 158.0000 1.0000
33.1000 131.0000 1.0000
33.1100 126.0000 1.0000
33.1200 144.0000 1.0000
33.1300 114.0000 1.0000
33.1400 125.0000 1.0000
33.1500 129.0000 1.0000
33.1600 163.0000 1.0000
33.1700 153.0000 1.0000
33.1800 140.0000 1.0000
33.1900 127.0000 1.0000
33.2000 138.0000 1.0000
33.2100 128.0000 1.0000
33.2200 137.0000 1.0000
33.2300 131.0000 1.0000
33.2400 132.0000 1.0000
33.2500 151.0000 1.0000
33.2600 134.0000 1.0000
33.2700 152.0000 1.0000
33.2800 133.0000 1.0000
33.2900 144.0000 1.0000
33.3000 152.0000 1.0000
33.3100 148.0000 1.0000
33.3200 151.0000 1.0000
33.3300 135.0000 1.0000
33.3400 132.0000 1.0000
33.3500 144.0000 1.0000
33.3600 132.0000 1.0000
33.3700 137.0000 1.0000
33.3800 135.0000 1.0000
33.3900 135.0000 1.0000
33.4000 137.0000 1.0000
33.4100 142.0000 1.0000
33.4200 144.0000 1.0000
33.4300 135.0000 1.0000
33.4400 144.0000 1.0000
33.4500 114.0000 1.0000
33.4600 163.0000 1.0000
33.4700 132.0000 1.0000
33.4800 135.0000 1.0000
33.4900 106.0000 1.0000
33.5000 123.0000 1.0000
33.5100 135.0000 1.0000
33.5200 137.0000 1.0000
33.5300 145.0000 1.0000
33.5400 134.0000 1.0000
33.5500 136.0000 1.0000
33.5600 151.0000 1.0000
33.5700 149.0000 1.0000
33.5800 159.0000 1.0000
33.5900 149.0000 1.0000
33.6000 139.0000 1.0000
33.6100 128.0000 1.0000
33.6200 139.0000 1.0000
33.6300 138.0000 1.0000
33.6400 144.0000 1.0000
33.6500 159.0000 1.0000
33.6600 124.0000 1.0000
33.6700 139.0000 1.0000
33.6800 153.0000 1.0000
33.6900 122.0000 1.0000
33.7000 133.0000 1.0000
33.7100 140.0000 1.0000
33.7200 138.0000 1.0000
33.7300 145.0000 1.0000
33.7400 126.0000 1.0000
33.7500 123.0000 1.0000
33.7600 153.0000 1.0000
33.7700 153.0000 1.0000
33.7800 125.0000 1.0000
33.7900 138.0000 1.0000
33.8000 144.0000 1.0000
33.8100 146.0000 1.0000
33.8200 138.0000 1.0000
33.8300 155.0000 1.0000
33.8400 129.0000 1.0000
33.8500 147.0000 1.0000
33.8600 135.0000 1.0000
33.8700 124.0000 1.0000
33.8800 138.0000 1.0000
33.8900 159.0000 1.0000
33.9000 121.0000 1.0000
33.9100 121.0000 1.0000
33.9200 143.0000 1.0000
33.9300 128.0000 1.0000
33.9400 136.0000 1.0000
33.9500 121.0000 1.0000
33.9600 146.0000 1.0000
33.9700 144.0000 1.0000
33.9800 140.0000 1.0000
33.9900 125.0000 1.0000
34.0000 139.0000 1.0000
34.0100 147.0000 1.0000
34.0200 112.0000 1.0000
34.0300 125.0000 1.0000
34.0400 158.0000 1.0000
34.0500 154.0000 1.0000
34.0600 143.0000 1.0000
34.0700 127.0000 1.0000
34.0800 129.0000 1.0000
34.0900 145.0000 1.0000
34.1000 145.0000 1.0000
34.1100 144.0000 1.0000
34.1200 143.0000 1.0000
34.1300 119.0000 1.0000
34.1400 151.0000 1.0000
34.1500 137.0000 1.0000
34.1600 114.0000 1.0000
34.1700 131.0000 1.0000
34.1800 137.0000 1.0000
34.1900 135.0000 1.0000
34.2000 131.0000 1.0000
34.2100 174.0000 1.0000
34.2200 133.0000 1.0000
34.2300 137.0000 1.0000
34.2400 151.0000 1.0000
34.2500 151.0000 1.0000
34.2600 146.0000 1.0000
34.2700 158.0000 1.0000
34.2800 160.0000 1.0000
34.2900 147.0000 1.0000
34.3000 121.0000 1.0000
34.3100 138.0000 1.0000
34.3200 130.0000 1.0000
34.3300 122.0000 1.0000
34.3400 134.0000 1.0000
34.3500 134.0000 1.0000
34.3600 151.0000 1.0000
34.3700 143.0000 1.0000
34.3800 130.0000 1.0000
34.3900 132.0000 1.0000
34.4000 133.0000 1.0000
34.4100 166.0000 1.0000
34.4200 142.0000 1.0000
34.4300 121.0000 1.0000
34.4400 142.0000 1.0000
34.4500 163.0000 1.0000
34.4600 145.0000 1.0000
34.4700 144.0000 1.0000
34.4800 145.0000 1.0000
34.4900 145.0000 1.0000
34.5000 138.0000 1.0000
34.5100 115.0000 1.0000
34.5200 136.0000 1.0000
34.5300 161.0000 1.0000
34.5400 139.0000 1.0000
34.5500 144.0000 1.0000
34.5600 126.0000 1.0000
34.5700 137.0000 1.0000
34.5800 157.0000 1.0000
34.5900 148.0000 1.0000
34.6000 133.0000 1.0000
34.6100 142.0000 1.0000
34.6200 143.0000 1.0000
34.6300 127.0000 1.0000
34.6400 142.0000 1.0000
34.6500 127.0000 1.0000
34.6600 128.0000 1.0000
34.6700 168.0000 1.0000
34.6800 147.0000 1.0000
34.6900 145.0000 1.0000
34.7000 142.0000 1.0000
34.7100 138.0000 1.0000
34.7200 149.0000 1.0000
34.7300 162.0000 1.0000
34.7400 126.0000 1.0000
34.7500 124.0000 1.0000
34.7600 150.0000 1.0000
34.7700 144.0000 1.0000
34.7800 140.0000 1.0000
34.7900 150.0000 1.0000
34.8000 146.0000 1.0000
34.8100 129.0000 1.0000
34.8200 157.0000 1.0000
34.8300 130.0000 1.0000
34.8400 158.0000 1.0000
34.8500 151.0000 1.0000
34.8600 157.0000 1.0000
34.8700 140.0000 1.0000
34.8800 141.0000 1.0000
34.8900 158.0000 1.0000
34.9000 136.0000 1.0000
34.9100 152.0000 1.0000
34.9200 136.0000 1.0000
34.9300 119.0000 1.0000
34.9400 156.0000 1.0000
34.9500 103.0000 1.0000
34.9600 128.0000 1.0000
34.9700 128.0000 1.0000
34.9800 141.0000 1.0000
34.9900 133.0000 1.0000
35.0000 140.0000 1.0000
35.0100 133.0000 1.0000
35.0200 120.0000 1.0000
35.0300 146.0000 1.0000
35.0400 154.0000 1.0000
35.0500 140.0000 1.0000
35.0600 115.0000 1.0000
35.0700 129.0000 1.0000
35.0800 142.0000 1.0000
35.0900 137.0000 1.0000
35.1000 158.0000 1.0000
35.1100 141.0000 1.0000
35.1200 151.0000 1.0000
35.1300 128.0000 1.0000
35.1400 153.0000 1.0000
35.1500 118.0000 1.0000
35.1600 127.0000 1.0000
35.1700 136.0000 1.0000
35.1800 118.0000 1.0000
35.1900 134.0000 1.0000
35.2000 145.0000 1.0000
35.2100 127.0000 1.0000
35.2200 144.0000 1.0000
35.2300 153.0000 1.0000
35.2400 131.0000 1.0000
35.2500 134.0000 1.0000
35.2600 162.0000 1.0000
35.2700 119.0000 1.0000
35.2800 145.0000 1.0000
35.2900 139.0000 1.0000
35.3000 135.0000 1.0000
35.3100 169.0000 1.0000
35.3200 141.0000 1.0000
35.3300 122.0000 1.0000
35.3400 135.0000 1.0000
35.3500 140.0000 1.0000
35.3600 124.0000 1.0000
35.3700 164.0000 1.0000
35.3800 147.0000 1.0000
35.3900 144.0000 1.0000
35.4000 126.0000 1.0000
35.4100 136.0000 1.0000
35.4200 154.0000 1.0000
35.4300 151.0000 1.0000
35.4400 147.0000 1.0000
35.4500 126.0000 1.0000
35.4600 144.0000 1.0000
35.4700 144.0000 1.0000
35.4800 144.0000 1.0000
35.4900 155.0000 1.0000
35.5000 131.0000 1.0000
35.5100 134.0000 1.0000
35.5200 141.0000 1.0000
35.5300 140.0000 1.0000
35.5400 139.0000 1.0000
35.5500 126.0000 1.0000
35.5600 151.0000 1.0000
35.5700 152.0000 1.0000
35.5800 144.0000 1.0000
35.5900 152.0000 1.0000
35.6000 128.0000 1.0000
35.6100 162.0000 1.0000
35.6200 119.0000 1.0000
35.6300 121.0000 1.0000
35.6400 154.0000 1.0000
35.6500 147.0000 1.0000
35.6600 147.0000 1.0000
35.6700 126.0000 1.0000
35.6800 130.0000 1.0000
35.6900 151.0000 1.0000
35.7000 144.0000 1.0000
35.7100 138.0000 1.0000
35.7200 137.0000 1.0000
35.7300 143.0000 1.0000
35.7400 138.0000 1.0000
35.7500 130.0000 1.0000
35.7600 139.0000 1.0000
35.7700 127.0000 1.0000
35.7800 135.0000 1.0000
35.7900 156.0000 1.0000
35.8000 149.0000 1.0000
35.8100 121.0000 1.0000
35.8200 163.0000 1.0000
35.8300 151.0000 1.0000
35.8400 132.0000 1.0000
35.8500 147.0000 1.0000
35.8600 135.0000 1.0000
35.8700 132.0000 1.0000
35.8800 150.0000 1.0000
35.8900 129.0000 1.0000
35.9000 132.0000 1.0000
35.9100 138.0000 1.0000
35.9200 142.0000 1.0000
35.9300 127.0000 1.0000
35.9400 131.0000 1.0000
35.9500 132.0000 1.0000
35.9600 146.0000 1.0000
35.9700 143.0000 1.0000
35.9800 125.0000 1.0000
35.9900 138.0000 1.0000
36.0000 149.0000 1.0000
36.0100 135.0000 1.0000
36.0200 125.0000 1.0000
36.0300 131.0000 1.0000
36.0400 124.0000 1.0000
36.0500 95.0000 1.0000
36.0600 149.0000 1.0000
36.0700 125.0000 1.0000
36.0800 144.0000 1.0000
36.0900 162.0000 1.0000
36.1000 122.0000 1.0000
36.1100 126.0000 1.0000
36.1200 132.0000 1.0000
36.1300 138.0000 1.0000
36.1400 151.0000 1.0000
36.1500 144.0000 1.0000
36.1600 149.0000 1.0000
36.1700 134.0000 1.0000
36.1800 139.0000 1.0000
36.1900 145.0000 1.0000
36.2000 152.0000 1.0000
36.2100 142.0000 1.0000
36.2200 170.0000 1.0000
36.2300 156.0000 1.0000
36.2400 139.0000 1.0000
36.2500 128.0000 1.0000
36.2600 158.0000 1.0000
36.2700 127.0000 1.0000
36.2800 128.0000 1.0000
36.2900 120.0000 1.0000
36.3000 116.0000 1.0000
36.3100 127.0000 1.0000
36.3200 140.0000 1.0000
36.3300 127.0000 1.0000
36.3400 135.0000 1.0000
36.3500 134.0000 1.0000
36.3600 135.0000 1.0000
36.3700 138.0000 1.0000
36.3800 138.0000 1.0000
36.3900 165.0000 1.0000
36.4000 165.0000 1.0000
36.4100 131.0000 1.0000
36.4200 135.0000 1.0000
36.4300 137.0000 1.0000
36.4400 153.0000 1.0000
36.4500 138.0000 1.0000
36.4600 160.0000 1.0000
36.4700 136.0000 1.0000
36.4800 146.0000 1.0000
36.4900 163.0000 1.0000
36.5000 138.0000 1.0000
36.5100 146.0000 1.0000
36.5200 137.0000 1.0000
36.5300 127.0000 1.0000
36.5400 135.0000 1.0000
36.5500 122.0000 1.0000
36.5600 144.0000 1.0000
36.5700 127.0000 1.0000
36.5800 148.0000 1.0000
36.5900 150.0000 1.0000
36.6000 147.0000 1.0000
36.6100 150.0000 1.0000
36.6200 147.0000 1.0000
36.6300 143.0000 1.0000
36.6400 143.0000 1.0000
36.6500 141.0000 1.0000
36.6600 156.0000 1.0000
36.6700 133.0000 1.0000
36.6800 129.0000 1.0000
36.6900 147.0000 1.0000
36.7000 148.0000 1.0000
36.7100 133.0000 1.0000
36.7200 121.0000 1.0000
36.7300 132.0000 1.0000
36.7400 141.0000 1.0000
36.7500 141.0000 1.0000
36.7600 149.0000 1.0000
36.7700 148.0000 1.0000
36.7800 150.0000 1.0000
36.7900 140.0000 1.0000
36.8000 139.0000 1.0000
36.8100 147.0000 1.0000
36.8200 125.0000 1.0000
36.8300 136.0000 1.0000
36.8400 132.0000 1.0000
36.8500 148.0000 1.0000
36.8600 148.0000 1.0000
36.8700 144.0000 1.0000
36.8800 129.0000 1.0000
36.8900 144.0000 1.0000
36.9000 128.0000 1.0000
36.9100 143.0000 1.0000
36.9200 149.0000 1.0000
36.9300 128.0000 1.0000
36.9400 130.0000 1.0000
36.9500 152.0000 1.0000
36.9600 140.0000 1.0000
36.9700 130.0000 1.0000
36.9800 145.0000 1.0000
36.9900 158.0000 1.0000
37.0000 143.0000 1.0000
37.0100 134.0000 1.0000
37.0200 157.0000 1.0000
37.0300 137.0000 1.0000
37.0400 129.0000 1.0000
37.0500 117.0000 1.0000
37.0600 143.0000 1.0000
37.0700 147.0000 1.0000
37.0800 150.0000 1.0000
37.0900 126.0000 1.0000
37.1000 136.0000 1.0000
37.1100 163.0000 1.0000
37.1200 148.0000 1.0000
37.1300 153.0000 1.0000
37.1400 148.0000 1.0000
37.1500 130.0000 1.0000
37.1600 129.0000 1.0000
37.1700 123.0000 1.0000
37.1800 126.0000 1.0000
37.1900 145.0000 1.0000
37.2000 147.0000 1.0000
37.2100 141.0000 1.0000
37.2200 130.0000 1.0000
37.2300 111.0000 1.0000
37.2400 133.0000 1.0000
37.2500 130.0000 1.0000
37.2600 147.0000 1.0000
37.2700 111.0000 1.0000
37.2800 135.0000 1.0000
37.2900 147.0000 1.0000
37.3000 139.0000 1.0000
37.3100 154.0000 1.0000
37.3200 132.0000 1.0000
37.3300 141.0000 1.0000
37.3400 153.0000 1.0000
37.3500 144.0000 1.0000
37.3600 125.0000 1.0000
37.3700 132.0000 1.0000
37.3800 132.0000 1.0000
37.3900 120.0000 1.0000
37.4000 136.0000 1.0000
37.4100 132.0000 1.0000
37.4200 136.0000 1.0000
37.4300 154.0000 1.0000
37.4400 128.0000 1.0000
37.4500 156.0000 1.0000
37.4600 145.0000 1.0000
37.4700 148.0000 1.0000
37.4800 120.0000 1.0000
37.4900 145.0000 1.0000
37.5000 128.0000 1.0000
37.5100 154.0000 1.0000
37.5200 142.0000 1.0000
37.5300 161.0000 1.0000
37.5400 115.0000 1.0000
37.5500 143.0000 1.0000
37.5600 147.0000 1.0000
37.5700 138.0000 1.0000
37.5800 137.0000 1.0000
37.5900 138.0000 1.0000
37.6000 136.0000 1.0000
37.6100 136.0000 1.0000
37.6200 135.0000 1.0000
37.6300 141.0000 1.0000
37.6400 131.0000 1.0000
37.6500 157.0000 1.0000
37.6600 154.0000 1.0000
37.6700 135.0000 1.0000
37.6800 135.0000 1.0000
37.6900 137.0000 1.0000
37.7000 159.0000 1.0000
37.7100 140.0000 1.0000
37.7200 156.0000 1.0000
37.7300 130.0000 1.0000
37.7400 159.0000 1.0000
37.7500 141.0000 1.0000
37.7600 156.0000 1.0000
37.7700 152.0000 1.0000
37.7800 137.0000 1.0000
37.7900 151.0000 1.0000
37.8000 139.0000 1.0000
37.8100 140.0000 1.0000
37.8200 157.0000 1.0000
37.8300 134.0000 1.0000
37.8400 143.0000 1.0000
37.8500 139.0000 1.0000
37.8600 138.0000 1.0000
37.8700 130.0000 1.0000
37.8800 142.0000 1.0000
37.8900 139.0000 1.0000
37.9000 136.0000 1.0000
37.9100 142.0000 1.0000
37.9200 151.0000 1.0000
37.9300 158.0000 1.0000
37.9400 150.0000 1.0000
37.9500 130.0000 1.0000
37.9600 122.0000 1.0000
37.9700 153.0000 1.0000
37.9800 138.0000 1.0000
37.9900 139.0000 1.0000
38.0000 126.0000 1.0000
38.0100 123.0000 1.0000
38.0200 152.0000 1.0000
38.0300 145.0000 1.0000
38.0400 145.0000 1.0000
38.0500 153.0000 1.0000
38.0600 142.0000 1.0000
38.0700 136.0000 1.0000
38.0800 143.0000 1.0000
38.0900 136.0000 1.0000
38.1000 159.0000 1.0000
38.1100 143.0000 1.0000
38.1200 140.0000 1.0000
38.1300 117.0000 1.0000
38.1400 135.0000 1.0000
38.1500 142.0000 1.0000
38.1600 135.0000 1.0000
38.1700 157.0000 1.0000
38.1800 122.0000 1.0000
38.1900 117.0000 1.0000
38.2000 132.0000 1.0000
38.2100 153.0000 1.0000
38.2200 157.0000 1.0000
38.2300 134.0000 1.0000
38.2400 140.0000 1.0000
38.2500 134.0000 1.0000
38.2600 167.0000 1.0000
38.2700 161.0000 1.0000
38.2800 163.0000 1.0000
38.2900 125.0000 1.0000
38.3000 163.0000 1.0000
38.3100 154.0000 1.0000
38.3200 132.0000 1.0000
38.3300 148.0000 1.0000
38.3400 143.0000 1.0000
38.3500 142.0000 1.0000
38.3600 151.0000 1.0000
38.3700 169.0000 1.0000
38.3800 148.0000 1.0000
38.3900 131.0000 1.0000
38.4000 146.0000 1.0000
38.4100 126.0000 1.0000
38.4200 146.0000 1.0000
38.4300 130.0000 1.0000
38.4400 156.0000 1.0000
38.4500 136.0000 1.0000
38.4600 140.0000 1.0000
38.4700 146.0000 1.0000
38.4800 147.0000 1.0000
38.4900 137.0000 1.0000
38.5000 120.0000 1.0000
38.5100 133.0000 1.0000
38.5200 145.0000 1.0000
38.5300 146.0000 1.0000
38.5400 145.0000 1.0000
38.5500 157.0000 1.0000
38.5600 147.0000 1.0000
38.5700 117.0000 1.0000
38.5800 143.0000 1.0000
38.5900 148.0000 1.0000
38.6000 137.0000 1.0000
38.6100 152.0000 1.0000
38.6200 134.0000 1.0000
38.6300 145.0000 1.0000
38.6400 139.0000 1.0000
38.6500 129.0000 1.0000
38.6600 148.0000 1.0000
38.6700 139.0000 1.0000
38.6800 145.0000 1.0000
38.6900 140.0000 1.0000
38.7000 134.0000 1.0000
38.7100 150.0000 1.0000
38.7200 141.0000 1.0000
38.7300 131.0000 1.0000
38.7400 148.0000 1.0000
38.7500 123.0000 1.0000
38.7600 151.0000 1.0000
38.7700 152.0000 1.0000
38.7800 144.0000 1.0000
38.7900 134.0000 1.0000
38.8000 131.0000 1.0000
38.8100 134.0000 1.0000
38.8200 126.0000 1.0000
38.8300 152.0000 1.0000
38.8400 155.0000 1.0000
38.8500 126.0000 1.0000
38.8600 138.0000 1.0000
38.8700 169.0000 1.0000
38.8800 149.0000 1.0000
38.8900 126.0000 1.0000
38.9000 148.0000 1.0000
38.9100 140.0000 1.0000
38.9200 124.0000 1.0000
38.9300 142.0000 1.0000
38.9400 148.0000 1.0000
38.9500 134.0000 1.0000
38.9600 150.0000 1.0000
38.9700 153.0000 1.0000
38.9800 140.0000 1.0000
38.9900 125.0000 1.0000
39.0000 133.0000 1.0000
39.0100 131.0000 1.0000
39.0200 146.0000 1.0000
39.0300 144.0000 1.0000
39.0400 126.0000 1.0000
39.0500 148.0000 1.0000
39.0600 156.0000 1.0000
39.0700 146.0000 1.0000
39.0800 142.0000 1.0000
39.0900 171.0000 1.0000
39.1000 147.0000 1.0000
39.1100 148.0000 1.0000
39.1200 147.0000 1.0000
39.1300 154.0000 1.0000
39.1400 152.0000 1.0000
39.1500 127.0000 1.0000
39.1600 138.0000 1.0000
39.1700 130.0000 1.0000
39.1800 161.0000 1.0000
39.1900 147.0000 1.0000
39.2000 143.0000 1.0000
39.2100 152.0000 1.0000
39.2200 123.0000 1.0000
39.2300 134.0000 1.0000
39.2400 146.0000 1.0000
39.2500 138.0000 1.0000
39.2600 134.0000 1.0000
39.2700 130.0000 1.0000
39.2800 132.0000 1.0000
39.2900 156.0000 1.0000
39.3000 164.0000 1.0000
39.3100 137.0000 1.0000
39.3200 164.0000 1.0000
39.3300 110.0000 1.0000
39.3400 147.0000 1.0000
39.3500 132.0000 1.0000
39.3600 144.0000 1.0000
39.3700 139.0000 1.0000
39.3800 142.0000 1.0000
39.3900 140.0000 1.0000
39.4000 151.0000 1.0000
39.4100 125.0000 1.0000
39.4200 141.0000 1.0000
39.4300 137.0000 1.0000
39.4400 131.0000 1.0000
39.4500 142.0000 1.0000
39.4600 143.0000 1.0000
39.4700 142.0000 1.0000
39.4800 146.0000 1.0000
39.4900 153.0000 1.0000
39.5000 142.0000 1.0000
39.5100 142.0000 1.0000
39.5200 136.0000 1.0000
39.5300 165.0000 1.0000
39.5400 161.0000 1.0000
39.5500 155.0000 1.0000
39.5600 137.0000 1.0000
39.5700 148.0000 1.0000
39.5800 125.0000 1.0000
39.5900 127.0000 1.0000
39.6000 157.0000 1.0000
39.6100 124.0000 1.0000
39.6200 139.0000 1.0000
39.6300 168.0000 1.0000
39.6400 151.0000 1.0000
39.6500 159.0000 1.0000
39.6600 141.0000 1.0000
39.6700 142.0000 1.0000
39.6800 142.0000 1.0000
39.6900 168.0000 1.0000
39.7000 148.0000 1.0000
39.7100 148.0000 1.0000
39.7200 139.0000 1.0000
39.7300 141.0000 1.0000
39.7400 147.0000 1.0000
39.7500 139.0000 1.0000
39.7600 128.0000 1.0000
39.7700 136.0000 1.0000
39.7800 145.0000 1.0000
39.7900 132.0000 1.0000
39.8000 134.0000 1.0000
39.8100 132.0000 1.0000
39.8200 149.0000 1.0000
39.8300 132.0000 1.0000
39.8400 139.0000 1.0000
39.8500 136.0000 1.0000
39.8600 144.0000 1.0000
39.8700 148.0000 1.0000
39.8800 137.0000 1.0000
39.8900 144.0000 1.0000
39.9000 155.0000 1.0000
39.9100 127.0000 1.0000
39.9200 139.0000 1.0000
39.9300 147.0000 1.0000
39.9400 136.0000 1.0000
39.9500 159.0000 1.0000
39.9600 140.0000 1.0000
39.9700 120.0000 1.0000
39.9800 153.0000 1.0000
39.9900 162.0000 1.0000
40.0000 132.0000 1.0000
40.0100 139.0000 1.0000
40.0200 153.0000 1.0000
40.0300 148.0000 1.0000
40.0400 147.0000 1.0000
40.0500 125.0000 1.0000
40.0600 184.0000 1.0000
40.0700 127.0000 1.0000
40.0800 128.0000 1.0000
40.0900 140.0000 1.0000
40.1000 151.0000 1.0000
40.1100 143.0000 1.0000
40.1200 142.0000 1.0000
40.1300 128.0000 1.0000
40.1400 132.0000 1.0000
40.1500 152.0000 1.0000
40.1600 127.0000 1.0000
40.1700 141.0000 1.0000
40.1800 136.0000 1.0000
40.1900 126.0000 1.0000
40.2000 148.0000 1.0000
40.2100 160.0000 1.0000
40.2200 137.0000 1.0000
40.2300 142.0000 1.0000
40.2400 142.0000 1.0000
40.2500 145.0000 1.0000
40.2600 153.0000 1.0000
40.2700 152.0000 1.0000
40.2800 147.0000 1.0000
40.2900 147.0000 1.0000
40.3000 146.0000 1.0000
40.3100 152.0000 1.0000
40.3200 141.0000 1.0000
40.3300 150.0000 1.0000
40.3400 146.0000 1.0000
40.3500 156.0000 1.0000
40.3600 118.0000 1.0000
40.3700 140.0000 1.0000
40.3800 129.0000 1.0000
40.3900 139.0000 1.0000
40.4000 139.0000 1.0000
40.4100 163.0000 1.0000
40.4200 127.0000 1.0000
40.4300 146.0000 1.0000
40.4400 156.0000 1.0000
40.4500 180.0000 1.0000
40.4600 134.0000 1.0000
40.4700 156.0000 1.0000
40.4800 129.0000 1.0000
40.4900 158.0000 1.0000
40.5000 139.0000 1.0000
40.5100 141.0000 1.0000
40.5200 140.0000 1.0000
40.5300 153.0000 1.0000
40.5400 134.0000 1.0000
40.5500 136.0000 1.0000
40.5600 138.0000 1.0000
40.5700 139.0000 1.0000
40.5800 144.0000 1.0000
40.5900 177.0000 1.0000
40.6000 151.0000 1.0000
40.6100 135.0000 1.0000
40.6200 141.0000 1.0000
40.6300 135.0000 1.0000
40.6400 141.0000 1.0000
40.6500 150.0000 1.0000
40.6600 119.0000 1.0000
40.6700 123.0000 1.0000
40.6800 141.0000 1.0000
40.6900 153.0000 1.0000
40.7000 135.0000 1.0000
40.7100 146.0000 1.0000
40.7200 138.0000 1.0000
40.7300 135.0000 1.0000
40.7400 149.0000 1.0000
40.7500 141.0000 1.0000
40.7600 139.0000 1.0000
40.7700 128.0000 1.0000
40.7800 135.0000 1.0000
40.7900 157.0000 1.0000
40.8000 122.0000 1.0000
40.8100 157.0000 1.0000
40.8200 127.0000 1.0000
40.8300 127.0000 1.0000
40.8400 137.0000 1.0000
40.8500 147.0000 1.0000
40.8600 137.0000 1.0000
40.8700 145.0000 1.0000
40.8800 156.0000 1.0000
40.8900 171.0000 1.0000
40.9000 154.0000 1.0000
40.9100 142.0000 1.0000
40.9200 142.0000 1.0000
40.9300 164.0000 1.0000
40.9400 125.0000 1.0000
40.9500 149.0000 1.0000
40.9600 162.0000 1.0000
40.9700 141.0000 1.0000
40.9800 154.0000 1.0000
40.9900 140.0000 1.0000
41.0000 149.0000 1.0000
41.0100 142.0000 1.0000
41.0200 125.0000 1.0000
41.0300 165.0000 1.0000
41.0400 155.0000 1.0000
41.0500 120.0000 1.0000
41.0600 120.0000 1.0000
41.0700 153.0000 1.0000
41.0800 125.0000 1.0000
41.0900 151.0000 1.0000
41.1000 151.0000 1.0000
41.1100 145.0000 1.0000
41.1200 133.0000 1.0000
41.1300 141.0000 1.0000
41.1400 128.0000 1.0000
41.1500 127.0000 1.0000
41.1600 150.0000 1.0000
41.1700 129.0000 1.0000
41.1800 153.0000 1.0000
41.1900 147.0000 1.0000
41.2000 137.0000 1.0000
41.2100 140.0000 1.0000
41.2200 145.0000 1.0000
41.2300 140.0000 1.0000
41.2400 135.0000 1.0000
41.2500 136.0000 1.0000
41.2600 114.0000 1.0000
41.2700 138.0000 1.0000
41.2800 128.0000 1.0000
41.2900 148.0000 1.0000
41.3000 137.0000 1.0000
41.3100 139.0000 1.0000
41.3200 128.0000 1.0000
41.3300 162.0000 1.0000
41.3400 135.0000 1.0000
41.3500 147.0000 1.0000
41.3600 138.0000 1.0000
41.3700 150.0000 1.0000
41.3800 124.0000 1.0000
41.3900 132.0000 1.0000
41.4000 153.0000 1.0000
41.4100 160.0000 1.0000
41.4200 139.0000 1.0000
41.4300 167.0000 1.0000
41.4400 145.0000 1.0000
41.4500 148.0000 1.0000
41.4600 148.0000 1.0000
41.4700 143.0000 1.0000
41.4800 148.0000 1.0000
41.4900 143.0000 1.0000
41.5000 136.0000 1.0000
41.5100 153.0000 1.0000
41.5200 146.0000 1.0000
41.5300 149.0000 1.0000
41.5400 132.0000 1.0000
41.5500 124.0000 1.0000
41.5600 137.0000 1.0000
41.5700 134.0000 1.0000
41.5800 144.0000 1.0000
41.5900 155.0000 1.0000
41.6000 162.0000 1.0000
41.6100 125.0000 1.0000
41.6200 154.0000 1.0000
41.6300 142.0000 1.0000
41.6400 145.0000 1.0000
41.6500 143.0000 1.0000
41.6600 138.0000 1.0000
41.6700 167.0000 1.0000
41.6800 143.0000 1.0000
41.6900 151.0000 1.0000
41.7000 142.0000 1.0000
41.7100 134.0000 1.0000
41.7200 141.0000 1.0000
41.7300 141.0000 1.0000
41.7400 148.0000 1.0000
41.7500 150.0000 1.0000
41.7600 133.0000 1.0000
41.7700 156.0000 1.0000
41.7800 170.0000 1.0000
41.7900 134.0000 1.0000
41.8000 173.0000 1.0000
41.8100 157.0000 1.0000
41.8200 142.0000 1.0000
41.8300 140.0000 1.0000
41.8400 134.0000 1.0000
41.8500 151.0000 1.0000
41.8600 166.0000 1.0000
41.8700 143.0000 1.0000
41.8800 137.0000 1.0000
41.8900 146.0000 1.0000
41.9000 134.0000 1.0000
41.9100 149.0000 1.0000
41.9200 147.0000 1.0000
41.9300 138.0000 1.0000
41.9400 130.0000 1.0000
41.9500 143.0000 1.0000
41.9600 121.0000 1.0000
41.9700 158.0000 1.0000
41.9800 158.0000 1.0000
41.9900 120.0000 1.0000
42.0000 140.0000 1.0000
42.0100 141.0000 1.0000
42.0200 155.0000 1.0000
42.0300 118.0000 1.0000
42.0400 131.0000 1.0000
42.0500 124.0000 1.0000
42.0600 146.0000 1.0000
42.0700 137.0000 1.0000
42.0800 141.0000 1.0000
42.0900 164.0000 1.0000
42.1000 150.0000 1.0000
42.1100 132.0000 1.0000
42.1200 134.0000 1.0000
42.1300 169.0000 1.0000
42.1400 123.0000 1.0000
42.1500 142.0000 1.0000
42.1600 137.0000 1.0000
42.1700 155.0000 1.0000
42.1800 170.0000 1.0000
42.1900 128.0000 1.0000
42.2000 148.0000 1.0000
42.2100 155.0000 1.0000
42.2200 146.0000 1.0000
42.2300 138.0000 1.0000
42.2400 156.0000 1.0000
42.2500 159.0000 1.0000
42.2600 144.0000 1.0000
42.2700 160.0000 1.0000
42.2800 172.0000 1.0000
42.2900 144.0000 1.0000
42.3000 147.0000 1.0000
42.3100 153.0000 1.0000
42.3200 180.0000 1.0000
42.3300 148.0000 1.0000
42.3400 132.0000 1.0000
42.3500 159.0000 1.0000
42.3600 152.0000 1.0000
42.3700 162.0000 1.0000
42.3800 179.0000 1.0000
42.3900 135.0000 1.0000
42.4000 161.0000 1.0000
42.4100 152.0000 1.0000
42.4200 159.0000 1.0000
42.4300 138.0000 1.0000
42.4400 164.0000 1.0000
42.4500 151.0000 1.0000
42.4600 160.0000 1.0000
42.4700 150.0000 1.0000
42.4800 141.0000 1.0000
42.4900 150.0000 1.0000
42.5000 162.0000 1.0000
42.5100 130.0000 1.0000
42.5200 148.0000 1.0000
42.5300 145.0000 1.0000
42.5400 146.0000 1.0000
42.5500 167.0000 1.0000
42.5600 150.0000 1.0000
42.5700 160.0000 1.0000
42.5800 140.0000 1.0000
42.5900 157.0000 1.0000
42.6000 156.0000 1.0000
42.6100 144.0000 1.0000
42.6200 167.0000 1.0000
42.6300 128.0000 1.0000
42.6400 153.0000 1.0000
42.6500 154.0000 1.0000
42.6600 155.0000 1.0000
42.6700 135.0000 1.0000
42.6800 143.0000 1.0000
42.6900 160.0000 1.0000
42.7000 145.0000 1.0000
42.7100 142.0000 1.0000
42.7200 132.0000 1.0000
42.7300 147.0000 1.0000
42.7400 151.0000 1.0000
42.7500 144.0000 1.0000
42.7600 156.0000 1.0000
42.7700 146.0000 1.0000
42.7800 152.0000 1.0000
42.7900 177.0000 1.0000
42.8000 154.0000 1.0000
42.8100 157.0000 1.0000
42.8200 170.0000 1.0000
42.8300 138.0000 1.0000
42.8400 149.0000 1.0000
42.8500 134.0000 1.0000
42.8600 154.0000 1.0000
42.8700 138.0000 1.0000
42.8800 156.0000 1.0000
42.8900 162.0000 1.0000
42.9000 125.0000 1.0000
42.9100 136.0000 1.0000
42.9200 168.0000 1.0000
42.9300 123.0000 1.0000
42.9400 143.0000 1.0000
42.9500 146.0000 1.0000
42.9600 132.0000 1.0000
42.9700 155.0000 1.0000
42.9800 135.0000 1.0000
42.9900 129.0000 1.0000
43.0000 158.0000 1.0000
43.0100 129.0000 1.0000
43.0200 150.0000 1.0000
43.0300 150.0000 1.0000
43.0400 153.0000 1.0000
43.0500 129.0000 1.0000
43.0600 151.0000 1.0000
43.0700 129.0000 1.0000
43.0800 118.0000 1.0000
43.0900 140.0000 1.0000
43.1000 153.0000 1.0000
43.1100 163.0000 1.0000
43.1200 143.0000 1.0000
43.1300 149.0000 1.0000
43.1400 150.0000 1.0000
43.1500 146.0000 1.0000
43.1600 139.0000 1.0000
43.1700 124.0000 1.0000
43.1800 147.0000 1.0000
43.1900 164.0000 1.0000
43.2000 171.0000 1.0000
43.2100 148.0000 1.0000
43.2200 159.0000 1.0000
43.2300 129.0000 1.0000
43.2400 169.0000 1.0000
43.2500 147.0000 1.0000
43.2600 140.0000 1.0000
43.2700 143.0000 1.0000
43.2800 149.0000 1.0000
43.2900 157.0000 1.0000
43.3000 124.0000 1.0000
43.3100 155.0000 1.0000
43.3200 137.0000 1.0000
43.3300 143.0000 1.0000
43.3400 140.0000 1.0000
43.3500 164.0000 1.0000
43.3600 150.0000 1.0000
43.3700 164.0000 1.0000
43.3800 145.0000 1.0000
43.3900 156.0000 1.0000
43.4000 158.0000 1.0000
43.4100 136.0000 1.0000
43.4200 124.0000 1.0000
43.4300 143.0000 1.0000
43.4400 152.0000 1.0000
43.4500 150.0000 1.0000
43.4600 147.0000 1.0000
43.4700 173.0000 1.0000
43.4800 148.0000 1.0000
43.4900 147.0000 1.0000
43.5000 140.0000 1.0000
43.5100 161.0000 1.0000
43.5200 157.0000 1.0000
43.5300 133.0000 1.0000
43.5400 153.0000 1.0000
43.5500 145.0000 1.0000
43.5600 156.0000 1.0000
43.5700 153.0000 1.0000
43.5800 162.0000 1.0000
43.5900 155.0000 1.0000
43.6000 146.0000 1.0000
43.6100 147.0000 1.0000
43.6200 146.0000 1.0000
43.6300 132.0000 1.0000
43.6400 159.0000 1.0000
43.6500 149.0000 1.0000
43.6600 158.0000 1.0000
43.6700 146.0000 1.0000
43.6800 165.0000 1.0000
43.6900 147.0000 1.0000
43.7000 152.0000 1.0000
43.7100 145.0000 1.0000
43.7200 152.0000 1.0000
43.7300 155.0000 1.0000
43.7400 139.0000 1.0000
43.7500 172.0000 1.0000
43.7600 157.0000 1.0000
43.7700 156.0000 1.0000
43.7800 162.0000 1.0000
43.7900 138.0000 1.0000
43.8000 157.0000 1.0000
43.8100 157.0000 1.0000
43.8200 172.0000 1.0000
43.8300 177.0000 1.0000
43.8400 174.0000 1.0000
43.8500 150.0000 1.0000
43.8600 190.0000 1.0000
43.8700 148.0000 1.0000
43.8800 146.0000 1.0000
43.8900 142.0000 1.0000
43.9000 158.0000 1.0000
43.9100 158.0000 1.0000
43.9200 171.0000 1.0000
43.9300 166.0000 1.0000
43.9400 173.0000 1.0000
43.9500 167.0000 1.0000
43.9600 189.0000 1.0000
43.9700 198.0000 1.0000
43.9800 178.0000 1.0000
43.9900 169.0000 1.0000
44.0000 184.0000 1.0000
44.0100 185.0000 1.0000
44.0200 184.0000 1.0000
44.0300 221.0000 1.0000
44.0400 213.0000 1.0000
44.0500 190.0000 1.0000
44.0600 195.0000 1.0000
44.0700 230.0000 1.0000
44.0800 191.0000 1.0000
44.0900 221.0000 1.0000
44.1000 248.0000 1.0000
44.1100 282.0000 1.0000
44.1200 254.0000 1.0000
44.1300 277.0000 1.0000
44.1400 267.0000 1.0000
44.1500 268.0000 1.0000
44.1600 281.0000 1.0000
44.1700 285.0000 1.0000
44.1800 316.0000 1.0000
44.1900 351.0000 1.0000
44.2000 287.0000 1.0000
44.2100 333.0000 1.0000
44.2200 346.0000 1.0000
44.2300 311.0000 1.0000
44.2400 362.0000 1.0000
44.2500 334.0000 1.0000
44.2600 369.0000 1.0000
44.2700 389.0000 1.0000
44.2800 383.0000 1.0000
44.2900 351.0000 1.0000
44.3000 380.0000 1.0000
44.3100 361.0000 1.0000
44.3200 378.0000 1.0000
44.3300 369.0000 1.0000
44.3400 363.0000 1.0000
44.3500 366.0000 1.0000
44.3600 408.0000 1.0000
44.3700 367.0000 1.0000
44.3800 341.0000 1.0000
44.3900 295.0000 1.0000
44.4000 345.0000 1.0000
44.4100 337.0000 1.0000
44.4200 354.0000 1.0000
44.4300 287.0000 1.0000
44.4400 322.0000 1.0000
44.4500 331.0000 1.0000
44.4600 292.0000 1.0000
44.4700 279.0000 1.0000
44.4800 261.0000 1.0000
44.4900 254.0000 1.0000
44.5000 278.0000 1.0000
44.5100 264.0000 1.0000
44.5200 220.0000 1.0000
44.5300 260.0000 1.0000
44.5400 251.0000 1.0000
44.5500 222.0000 1.0000
44.5600 235.0000 1.0000
44.5700 236.0000 1.0000
44.5800 190.0000 1.0000
44.5900 231.0000 1.0000
44.6000 193.0000 1.0000
44.6100 159.0000 1.0000
44.6200 162.0000 1.0000
44.6300 203.0000 1.0000
44.6400 160.0000 1.0000
44.6500 202.0000 1.0000
44.6600 174.0000 1.0000
44.6700 179.0000 1.0000
44.6800 155.0000 1.0000
44.6900 180.0000 1.0000
44.7000 171.0000 1.0000
44.7100 199.0000 1.0000
44.7200 194.0000 1.0000
44.7300 199.0000 1.0000
44.7400 186.0000 1.0000
44.7500 145.0000 1.0000
44.7600 181.0000 1.0000
44.7700 170.0000 1.0000
44.7800 139.0000 1.0000
44.7900 163.0000 1.0000
44.8000 150.0000 1.0000
44.8100 167.0000 1.0000
44.8200 166.0000 1.0000
44.8300 166.0000 1.0000
44.8400 173.0000 1.0000
44.8500 161.0000 1.0000
44.8600 149.0000 1.0000
44.8700 153.0000 1.0000
44.8800 151.0000 1.0000
44.8900 162.0000 1.0000
44.9000 139.0000 1.0000
44.9100 165.0000 1.0000
44.9200 152.0000 1.0000
44.9300 172.0000 1.0000
44.9400 146.0000 1.0000
44.9500 158.0000 1.0000
44.9600 144.0000 1.0000
44.9700 153.0000 1.0000
44.9800 153.0000 1.0000
44.9900 147.0000 1.0000
45.0000 133.0000 1.0000
45.0100 141.0000 1.0000
45.0200 132.0000 1.0000
45.0300 143.0000 1.0000
45.0400 178.0000 1.0000
45.0500 130.0000 1.0000
45.0600 150.0000 1.0000
45.0700 132.0000 1.0000
45.0800 151.0000 1.0000
45.0900 134.0000 1.0000
45.1000 176.0000 1.0000
45.1100 143.0000 1.0000
45.1200 155.0000 1.0000
45.1300 144.0000 1.0000
45.1400 161.0000 1.0000
45.1500 153.0000 1.0000
45.1600 162.0000 1.0000
45.1700 160.0000 1.0000
45.1800 155.0000 1.0000
45.1900 141.0000 1.0000
45.2000 145.0000 1.0000
45.2100 161.0000 1.0000
45.2200 140.0000 1.0000
45.2300 154.0000 1.0000
45.2400 170.0000 1.0000
45.2500 159.0000 1.0000
45.2600 143.0000 1.0000
45.2700 143.0000 1.0000
45.2800 133.0000 1.0000
45.2900 146.0000 1.0000
45.3000 138.0000 1.0000
45.3100 133.0000 1.0000
45.3200 139.0000 1.0000
45.3300 149.0000 1.0000
45.3400 128.0000 1.0000
45.3500 137.0000 1.0000
45.3600 158.0000 1.0000
45.3700 139.0000 1.0000
45.3800 152.0000 1.0000
45.3900 159.0000 1.0000
45.4000 166.0000 1.0000
45.4100 140.0000 1.0000
45.4200 161.0000 1.0000
45.4300 145.0000 1.0000
45.4400 149.0000 1.0000
45.4500 168.0000 1.0000
45.4600 142.0000 1.0000
45.4700 151.0000 1.0000
45.4800 138.0000 1.0000
45.4900 158.0000 1.0000
45.5000 140.0000 1.0000
45.5100 150.0000 1.0000
45.5200 146.0000 1.0000
45.5300 171.0000 1.0000
45.5400 147.0000 1.0000
45.5500 149.0000 1.0000
45.5600 152.0000 1.0000
45.5700 139.0000 1.0000
45.5800 132.0000 1.0000
45.5900 135.0000 1.0000
45.6000 137.0000 1.0000
45.6100 143.0000 1.0000
45.6200 138.0000 1.0000
45.6300 157.0000 1.0000
45.6400 162.0000 1.0000
45.6500 160.0000 1.0000
45.6600 169.0000 1.0000
45.6700 148.0000 1.0000
45.6800 152.0000 1.0000
45.6900 159.0000 1.0000
45.7000 149.0000 1.0000
45.7100 143.0000 1.0000
45.7200 153.0000 1.0000
45.7300 158.0000 1.0000
45.7400 155.0000 1.0000
45.7500 144.0000 1.0000
45.7600 148.0000 1.0000
45.7700 150.0000 1.0000
45.7800 140.0000 1.0000
45.7900 143.0000 1.0000
45.8000 157.0000 1.0000
45.8100 146.0000 1.0000
45.8200 154.0000 1.0000
45.8300 173.0000 1.0000
45.8400 160.0000 1.0000
45.8500 146.0000 1.0000
45.8600 159.0000 1.0000
45.8700 152.0000 1.0000
45.8800 160.0000 1.0000
45.8900 143.0000 1.0000
45.9000 131.0000 1.0000
45.9100 156.0000 1.0000
45.9200 160.0000 1.0000
45.9300 123.0000 1.0000
45.9400 144.0000 1.0000
45.9500 137.0000 1.0000
45.9600 153.0000 1.0000
45.9700 140.0000 1.0000
45.9800 123.0000 1.0000
45.9900 154.0000 1.0000
46.0000 133.0000 1.0000
46.0100 158.0000 1.0000
46.0200 134.0000 1.0000
46.0300 144.0000 1.0000
46.0400 154.0000 1.0000
46.0500 166.0000 1.0000
46.0600 151.0000 1.0000
46.0700 145.0000 1.0000
46.0800 148.0000 1.0000
46.0900 161.0000 1.0000
46.1000 155.0000 1.0000
46.1100 166.0000 1.0000
46.1200 145.0000 1.0000
46.1300 147.0000 1.0000
46.1400 144.0000 1.0000
46.1500 161.0000 1.0000
46.1600 155.0000 1.0000
46.1700 147.0000 1.0000
46.1800 147.0000 1.0000
46.1900 158.0000 1.0000
46.2000 137.0000 1.0000
46.2100 151.0000 1.0000
46.2200 143.0000 1.0000
46.2300 163.0000 1.0000
46.2400 157.0000 1.0000
46.2500 135.0000 1.0000
46.2600 139.0000 1.0000
46.2700 173.0000 1.0000
46.2800 141.0000 1.0000
46.2900 141.0000 1.0000
46.3000 163.0000 1.0000
46.3100 161.0000 1.0000
46.3200 151.0000 1.0000
46.3300 143.0000 1.0000
46.3400 144.0000 1.0000
46.3500 122.0000 1.0000
46.3600 148.0000 1.0000
46.3700 157.0000 1.0000
46.3800 176.0000 1.0000
46.3900 163.0000 1.0000
46.4000 119.0000 1.0000
46.4100 143.0000 1.0000
46.4200 165.0000 1.0000
46.4300 167.0000 1.0000
46.4400 158.0000 1.0000
46.4500 126.0000 1.0000
46.4600 135.0000 1.0000
46.4700 132.0000 1.0000
46.4800 152.0000 1.0000
46.4900 136.0000 1.0000
46.5000 162.0000 1.0000
46.5100 161.0000 1.0000
46.5200 137.0000 1.0000
46.5300 149.0000 1.0000
46.5400 156.0000 1.0000
46.5500 132.0000 1.0000
46.5600 157.0000 1.0000
46.5700 136.0000 1.0000
46.5800 152.0000 1.0000
46.5900 152.0000 1.0000
46.6000 149.0000 1.0000
46.6100 145.0000 1.0000
46.6200 156.0000 1.0000
46.6300 124.0000 1.0000
46.6400 138.0000 1.0000
46.6500 140.0000 1.0000
46.6600 150.0000 1.0000
46.6700 139.0000 1.0000
46.6800 162.0000 1.0000
46.6900 172.0000 1.0000
46.7000 177.0000 1.0000
46.7100 160.0000 1.0000
46.7200 152.0000 1.0000
46.7300 140.0000 1.0000
46.7400 136.0000 1.0000
46.7500 131.0000 1.0000
46.7600 139.0000 1.0000
46.7700 155.0000 1.0000
46.7800 142.0000 1.0000
46.7900 138.0000 1.0000
46.8000 145.0000 1.0000
46.8100 125.0000 1.0000
46.8200 165.0000 1.0000
46.8300 155.0000 1.0000
46.8400 149.0000 1.0000
46.8500 143.0000 1.0000
46.8600 165.0000 1.0000
46.8700 161.0000 1.0000
46.8800 152.0000 1.0000
46.8900 149.0000 1.0000
46.9000 142.0000 1.0000
46.9100 132.0000 1.0000
46.9200 172.0000 1.0000
46.9300 140.0000 1.0000
46.9400 152.0000 1.0000
46.9500 153.0000 1.0000
46.9600 157.0000 1.0000
46.9700 145.0000 1.0000
46.9800 149.0000 1.0000
46.9900 156.0000 1.0000
47.0000 150.0000 1.0000
47.0100 137.0000 1.0000
47.0200 133.0000 1.0000
47.0300 144.0000 1.0000
47.0400 150.0000 1.0000
47.0500 144.0000 1.0000
47.0600 141.0000 1.0000
47.0700 144.0000 1.0000
47.0800 149.0000 1.0000
47.0900 122.0000 1.0000
47.1000 163.0000 1.0000
47.1100 137.0000 1.0000
47.1200 155.0000 1.0000
47.1300 148.0000 1.0000
47.1400 165.0000 1.0000
47.1500 153.0000 1.0000
47.1600 141.0000 1.0000
47.1700 137.0000 1.0000
47.1800 180.0000 1.0000
47.1900 143.0000 1.0000
47.2000 158.0000 1.0000
47.2100 161.0000 1.0000
47.2200 151.0000 1.0000
47.2300 132.0000 1.0000
47.2400 160.0000 1.0000
47.2500 147.0000 1.0000
47.2600 133.0000 1.0000
47.2700 150.0000 1.0000
47.2800 150.0000 1.0000
47.2900 137.0000 1.0000
47.3000 152.0000 1.0000
47.3100 138.0000 1.0000
47.3200 133.0000 1.0000
47.3300 166.0000 1.0000
47.3400 135.0000 1.0000
47.3500 165.0000 1.0000
47.3600 142.0000 1.0000
47.3700 154.0000 1.0000
47.3800 130.0000 1.0000
47.3900 152.0000 1.0000
47.4000 175.0000 1.0000
47.4100 155.0000 1.0000
47.4200 132.0000 1.0000
47.4300 153.0000 1.0000
47.4400 149.0000 1.0000
47.4500 145.0000 1.0000
47.4600 173.0000 1.0000
47.4700 157.0000 1.0000
47.4800 142.0000 1.0000
47.4900 143.0000 1.0000
47.5000 144.0000 1.0000
47.5100 171.0000 1.0000
47.5200 157.0000 1.0000
47.5300 133.0000 1.0000
47.5400 148.0000 1.0000
47.5500 145.0000 1.0000
47.5600 155.0000 1.0000
47.5700 166.0000 1.0000
47.5800 164.0000 1.0000
47.5900 130.0000 1.0000
47.6000 158.0000 1.0000
47.6100 146.0000 1.0000
47.6200 153.0000 1.0000
47.6300 135.0000 1.0000
47.6400 162.0000 1.0000
47.6500 145.0000 1.0000
47.6600 144.0000 1.0000
47.6700 125.0000 1.0000
47.6800 133.0000 1.0000
47.6900 159.0000 1.0000
47.7000 168.0000 1.0000
47.7100 148.0000 1.0000
47.7200 156.0000 1.0000
47.7300 126.0000 1.0000
47.7400 147.0000 1.0000
47.7500 145.0000 1.0000
47.7600 151.0000 1.0000
47.7700 135.0000 1.0000
47.7800 136.0000 1.0000
47.7900 143.0000 1.0000
47.8000 148.0000 1.0000
47.8100 140.0000 1.0000
47.8200 158.0000 1.0000
47.8300 153.0000 1.0000
47.8400 151.0000 1.0000
47.8500 148.0000 1.0000
47.8600 142.0000 1.0000
47.8700 128.0000 1.0000
47.8800 157.0000 1.0000
47.8900 127.0000 1.0000
47.9000 144.0000 1.0000
47.9100 156.0000 1.0000
47.9200 152.0000 1.0000
47.9300 162.0000 1.0000
47.9400 147.0000 1.0000
47.9500 160.0000 1.0000
47.9600 146.0000 1.0000
47.9700 167.0000 1.0000
47.9800 133.0000 1.0000
47.9900 146.0000 1.0000
48.0000 150.0000 1.0000
48.0100 148.0000 1.0000
48.0200 160.0000 1.0000
48.0300 152.0000 1.0000
48.0400 166.0000 1.0000
48.0500 152.0000 1.0000
48.0600 144.0000 1.0000
48.0700 167.0000 1.0000
48.0800 144.0000 1.0000
48.0900 157.0000 1.0000
48.1000 145.0000 1.0000
48.1100 154.0000 1.0000
48.1200 166.0000 1.0000
48.1300 158.0000 1.0000
48.1400 149.0000 1.0000
48.1500 171.0000 1.0000
48.1600 157.0000 1.0000
48.1700 156.0000 1.0000
48.1800 157.0000 1.0000
48.1900 160.0000 1.0000
48.2000 167.0000 1.0000
48.2100 125.0000 1.0000
48.2200 170.0000 1.0000
48.2300 136.0000 1.0000
48.2400 175.0000 1.0000
48.2500 148.0000 1.0000
48.2600 134.0000 1.0000
48.2700 150.0000 1.0000
48.2800 171.0000 1.0000
48.2900 132.0000 1.0000
48.3000 139.0000 1.0000
48.3100 133.0000 1.0000
48.3200 152.0000 1.0000
48.3300 158.0000 1.0000
48.3400 153.0000 1.0000
48.3500 147.0000 1.0000
48.3600 147.0000 1.0000
48.3700 148.0000 1.0000
48.3800 168.0000 1.0000
48.3900 146.0000 1.0000
48.4000 126.0000 1.0000
48.4100 147.0000 1.0000
48.4200 159.0000 1.0000
48.4300 168.0000 1.0000
48.4400 122.0000 1.0000
48.4500 162.0000 1.0000
48.4600 119.0000 1.0000
48.4700 151.0000 1.0000
48.4800 158.0000 1.0000
48.4900 153.0000 1.0000
48.5000 146.0000 1.0000
48.5100 163.0000 1.0000
48.5200 147.0000 1.0000
48.5300 169.0000 1.0000
48.5400 168.0000 1.0000
48.5500 148.0000 1.0000
48.5600 160.0000 1.0000
48.5700 170.0000 1.0000
48.5800 146.0000 1.0000
48.5900 172.0000 1.0000
48.6000 151.0000 1.0000
48.6100 159.0000 1.0000
48.6200 148.0000 1.0000
48.6300 153.0000 1.0000
48.6400 170.0000 1.0000
48.6500 157.0000 1.0000
48.6600 134.0000 1.0000
48.6700 159.0000 1.0000
48.6800 150.0000 1.0000
48.6900 152.0000 1.0000
48.7000 147.0000 1.0000
48.7100 148.0000 1.0000
48.7200 166.0000 1.0000
48.7300 155.0000 1.0000
48.7400 164.0000 1.0000
48.7500 153.0000 1.0000
48.7600 145.0000 1.0000
48.7700 146.0000 1.0000
48.7800 139.0000 1.0000
48.7900 131.0000 1.0000
48.8000 154.0000 1.0000
48.8100 130.0000 1.0000
48.8200 145.0000 1.0000
48.8300 128.0000 1.0000
48.8400 142.0000 1.0000
48.8500 143.0000 1.0000
48.8600 144.0000 1.0000
48.8700 140.0000 1.0000
48.8800 131.0000 1.0000
48.8900 134.0000 1.0000
48.9000 146.0000 1.0000
48.9100 151.0000 1.0000
48.9200 132.0000 1.0000
48.9300 138.0000 1.0000
48.9400 152.0000 1.0000
48.9500 154.0000 1.0000
48.9600 155.0000 1.0000
48.9700 122.0000 1.0000
48.9800 169.0000 1.0000
48.9900 153.0000 1.0000
49.0000 135.0000 1.0000
49.0100 156.0000 1.0000
49.0200 156.0000 1.0000
49.0300 165.0000 1.0000
49.0400 128.0000 1.0000
49.0500 153.0000 1.0000
49.0600 147.0000 1.0000
49.0700 133.0000 1.0000
49.0800 158.0000 1.0000
49.0900 130.0000 1.0000
49.1000 150.0000 1.0000
49.1100 163.0000 1.0000
49.1200 151.0000 1.0000
49.1300 147.0000 1.0000
49.1400 134.0000 1.0000
49.1500 142.0000 1.0000
49.1600 151.0000 1.0000
49.1700 132.0000 1.0000
49.1800 139.0000 1.0000
49.1900 151.0000 1.0000
49.2000 143.0000 1.0000
49.2100 145.0000 1.0000
49.2200 156.0000 1.0000
49.2300 153.0000 1.0000
49.2400 155.0000 1.0000
49.2500 136.0000 1.0000
49.2600 161.0000 1.0000
49.2700 175.0000 1.0000
49.2800 173.0000 1.0000
49.2900 145.0000 1.0000
49.3000 150.0000 1.0000
49.3100 143.0000 1.0000
49.3200 145.0000 1.0000
49.3300 147.0000 1.0000
49.3400 179.0000 1.0000
49.3500 163.0000 1.0000
49.3600 144.0000 1.0000
49.3700 156.0000 1.0000
49.3800 155.0000 1.0000
49.3900 153.0000 1.0000
49.4000 155.0000 1.0000
49.4100 153.0000 1.0000
49.4200 158.0000 1.0000
49.4300 148.0000 1.0000
49.4400 149.0000 1.0000
49.4500 137.0000 1.0000
49.4600 159.0000 1.0000
49.4700 145.0000 1.0000
49.4800 143.0000 1.0000
49.4900 147.0000 1.0000
49.5000 158.0000 1.0000
49.5100 143.0000 1.0000
49.5200 152.0000 1.0000
49.5300 163.0000 1.0000
49.5400 105.0000 1.0000
49.5500 139.0000 1.0000
49.5600 156.0000 1.0000
49.5700 147.0000 1.0000
49.5800 148.0000 1.0000
49.5900 160.0000 1.0000
49.6000 157.0000 1.0000
49.6100 166.0000 1.0000
49.6200 164.0000 1.0000
49.6300 154.0000 1.0000
49.6400 153.0000 1.0000
49.6500 164.0000 1.0000
49.6600 135.0000 1.0000
49.6700 159.0000 1.0000
49.6800 146.0000 1.0000
49.6900 143.0000 1.0000
49.7000 146.0000 1.0000
49.7100 136.0000 1.0000
49.7200 148.0000 1.0000
49.7300 171.0000 1.0000
49.7400 150.0000 1.0000
49.7500 134.0000 1.0000
49.7600 151.0000 1.0000
49.7700 150.0000 1.0000
49.7800 163.0000 1.0000
49.7900 143.0000 1.0000
49.8000 141.0000 1.0000
49.8100 161.0000 1.0000
49.8200 155.0000 1.0000
49.8300 146.0000 1.0000
49.8400 161.0000 1.0000
49.8500 150.0000 1.0000
49.8600 149.0000 1.0000
49.8700 147.0000 1.0000
49.8800 156.0000 1.0000
49.8900 145.0000 1.0000
49.9000 157.0000 1.0000
49.9100 144.0000 1.0000
49.9200 167.0000 1.0000
49.9300 125.0000 1.0000
49.9400 154.0000 1.0000
49.9500 149.0000 1.0000
49.9600 151.0000 1.0000
49.9700 159.0000 1.0000
49.9800 165.0000 1.0000
49.9900 138.0000 1.0000
50.0000 159.0000 1.0000
50.0100 152.0000 1.0000
50.0200 155.0000 1.0000
50.0300 142.0000 1.0000
50.0400 143.0000 1.0000
50.0500 145.0000 1.0000
50.0600 157.0000 1.0000
50.0700 139.0000 1.0000
50.0800 169.0000 1.0000
50.0900 157.0000 1.0000
50.1000 124.0000 1.0000
50.1100 142.0000 1.0000
50.1200 163.0000 1.0000
50.1300 149.0000 1.0000
50.1400 151.0000 1.0000
50.1500 121.0000 1.0000
50.1600 140.0000 1.0000
50.1700 146.0000 1.0000
50.1800 156.0000 1.0000
50.1900 148.0000 1.0000
50.2000 156.0000 1.0000
50.2100 152.0000 1.0000
50.2200 163.0000 1.0000
50.2300 134.0000 1.0000
50.2400 164.0000 1.0000
50.2500 149.0000 1.0000
50.2600 122.0000 1.0000
50.2700 130.0000 1.0000
50.2800 170.0000 1.0000
50.2900 158.0000 1.0000
50.3000 142.0000 1.0000
50.3100 158.0000 1.0000
50.3200 149.0000 1.0000
50.3300 155.0000 1.0000
50.3400 157.0000 1.0000
50.3500 127.0000 1.0000
50.3600 139.0000 1.0000
50.3700 143.0000 1.0000
50.3800 164.0000 1.0000
50.3900 147.0000 1.0000
50.4000 124.0000 1.0000
50.4100 132.0000 1.0000
50.4200 145.0000 1.0000
50.4300 171.0000 1.0000
50.4400 164.0000 1.0000
50.4500 144.0000 1.0000
50.4600 145.0000 1.0000
50.4700 135.0000 1.0000
50.4800 145.0000 1.0000
50.4900 167.0000 1.0000
50.5000 176.0000 1.0000
50.5100 131.0000 1.0000
50.5200 134.0000 1.0000
50.5300 141.0000 1.0000
50.5400 158.0000 1.0000
50.5500 181.0000 1.0000
50.5600 160.0000 1.0000
50.5700 143.0000 1.0000
50.5800 149.0000 1.0000
50.5900 153.0000 1.0000
50.6000 145.0000 1.0000
50.6100 147.0000 1.0000
50.6200 150.0000 1.0000
50.6300 158.0000 1.0000
50.6400 141.0000 1.0000
50.6500 140.0000 1.0000
50.6600 141.0000 1.0000
50.6700 161.0000 1.0000
50.6800 179.0000 1.0000
50.6900 150.0000 1.0000
50.7000 147.0000 1.0000
50.7100 159.0000 1.0000
50.7200 153.0000 1.0000
50.7300 161.0000 1.0000
50.7400 138.0000 1.0000
50.7500 164.0000 1.0000
50.7600 166.0000 1.0000
50.7700 174.0000 1.0000
50.7800 152.0000 1.0000
50.7900 174.0000 1.0000
50.8000 149.0000 1.0000
50.8100 138.0000 1.0000
50.8200 145.0000 1.0000
50.8300 157.0000 1.0000
50.8400 156.0000 1.0000
50.8500 156.0000 1.0000
50.8600 182.0000 1.0000
50.8700 158.0000 1.0000
50.8800 144.0000 1.0000
50.8900 151.0000 1.0000
50.9000 158.0000 1.0000
50.9100 139.0000 1.0000
50.9200 159.0000 1.0000
50.9300 138.0000 1.0000
50.9400 158.0000 1.0000
50.9500 122.0000 1.0000
50.9600 152.0000 1.0000
50.9700 152.0000 1.0000
50.9800 181.0000 1.0000
50.9900 138.0000 1.0000
51.0000 169.0000 1.0000
51.0100 150.0000 1.0000
51.0200 161.0000 1.0000
51.0300 162.0000 1.0000
51.0400 143.0000 1.0000
51.0500 154.0000 1.0000
51.0600 134.0000 1.0000
51.0700 143.0000 1.0000
51.0800 165.0000 1.0000
51.0900 152.0000 1.0000
51.1000 166.0000 1.0000
51.1100 167.0000 1.0000
51.1200 147.0000 1.0000
51.1300 153.0000 1.0000
51.1400 141.0000 1.0000
51.1500 144.0000 1.0000
51.1600 144.0000 1.0000
51.1700 154.0000 1.0000
51.1800 159.0000 1.0000
51.1900 164.0000 1.0000
51.2000 145.0000 1.0000
51.2100 167.0000 1.0000
51.2200 147.0000 1.0000
51.2300 149.0000 1.0000
51.2400 150.0000 1.0000
51.2500 137.0000 1.0000
51.2600 139.0000 1.0000
51.2700 149.0000 1.0000
51.2800 164.0000 1.0000
51.2900 147.0000 1.0000
51.3000 145.0000 1.0000
51.3100 152.0000 1.0000
51.3200 167.0000 1.0000
51.3300 150.0000 1.0000
51.3400 158.0000 1.0000
51.3500 158.0000 1.0000
51.3600 167.0000 1.0000
51.3700 149.0000 1.0000
51.3800 145.0000 1.0000
51.3900 139.0000 1.0000
51.4000 153.0000 1.0000
51.4100 143.0000 1.0000
51.4200 148.0000 1.0000
51.4300 157.0000 1.0000
51.4400 168.0000 1.0000
51.4500 153.0000 1.0000
51.4600 155.0000 1.0000
51.4700 141.0000 1.0000
51.4800 162.0000 1.0000
51.4900 131.0000 1.0000
51.5000 170.0000 1.0000
51.5100 156.0000 1.0000
51.5200 149.0000 1.0000
51.5300 173.0000 1.0000
51.5400 150.0000 1.0000
51.5500 137.0000 1.0000
51.5600 143.0000 1.0000
51.5700 159.0000 1.0000
51.5800 158.0000 1.0000
51.5900 153.0000 1.0000
51.6000 159.0000 1.0000
51.6100 145.0000 1.0000
51.6200 123.0000 1.0000
51.6300 136.0000 1.0000
51.6400 163.0000 1.0000
51.6500 168.0000 1.0000
51.6600 150.0000 1.0000
51.6700 133.0000 1.0000
51.6800 182.0000 1.0000
51.6900 148.0000 1.0000
51.7000 139.0000 1.0000
51.7100 166.0000 1.0000
51.7200 154.0000 1.0000
51.7300 165.0000 1.0000
51.7400 136.0000 1.0000
51.7500 160.0000 1.0000
51.7600 137.0000 1.0000
51.7700 148.0000 1.0000
51.7800 139.0000 1.0000
51.7900 154.0000 1.0000
51.8000 166.0000 1.0000
51.8100 164.0000 1.0000
51.8200 151.0000 1.0000
51.8300 138.0000 1.0000
51.8400 145.0000 1.0000
51.8500 140.0000 1.0000
51.8600 152.0000 1.0000
51.8700 146.0000 1.0000
51.8800 161.0000 1.0000
51.8900 158.0000 1.0000
51.9000 147.0000 1.0000
51.9100 150.0000 1.0000
51.9200 152.0000 1.0000
51.9300 152.0000 1.0000
51.9400 147.0000 1.0000
51.9500 134.0000 1.0000
51.9600 144.0000 1.0000
51.9700 132.0000 1.0000
51.9800 146.0000 1.0000
51.9900 153.0000 1.0000
52.0000 141.0000 1.0000
52.0100 141.0000 1.0000
52.0200 171.0000 1.0000
52.0300 152.0000 1.0000
52.0400 149.0000 1.0000
52.0500 136.0000 1.0000
52.0600 160.0000 1.0000
52.0700 139.0000 1.0000
52.0800 177.0000 1.0000
52.0900 144.0000 1.0000
52.1000 149.0000 1.0000
52.1100 139.0000 1.0000
52.1200 174.0000 1.0000
52.1300 135.0000 1.0000
52.1400 162.0000 1.0000
52.1500 141.0000 1.0000
52.1600 153.0000 1.0000
52.1700 185.0000 1.0000
52.1800 163.0000 1.0000
52.1900 137.0000 1.0000
52.2000 159.0000 1.0000
52.2100 168.0000 1.0000
52.2200 146.0000 1.0000
52.2300 141.0000 1.0000
52.2400 158.0000 1.0000
52.2500 157.0000 1.0000
52.2600 144.0000 1.0000
52.2700 154.0000 1.0000
52.2800 154.0000 1.0000
52.2900 167.0000 1.0000
52.3000 149.0000 1.0000
52.3100 162.0000 1.0000
52.3200 158.0000 1.0000
52.3300 157.0000 1.0000
52.3400 125.0000 1.0000
52.3500 146.0000 1.0000
52.3600 153.0000 1.0000
52.3700 146.0000 1.0000
52.3800 163.0000 1.0000
52.3900 144.0000 1.0000
52.4000 143.0000 1.0000
52.4100 154.0000 1.0000
52.4200 163.0000 1.0000
52.4300 151.0000 1.0000
52.4400 154.0000 1.0000
52.4500 148.0000 1.0000
52.4600 143.0000 1.0000
52.4700 145.0000 1.0000
52.4800 157.0000 1.0000
52.4900 146.0000 1.0000
52.5000 143.0000 1.0000
52.5100 165.0000 1.0000
52.5200 168.0000 1.0000
52.5300 146.0000 1.0000
52.5400 141.0000 1.0000
52.5500 157.0000 1.0000
52.5600 139.0000 1.0000
52.5700 158.0000 1.0000
52.5800 142.0000 1.0000
52.5900 156.0000 1.0000
52.6000 178.0000 1.0000
52.6100 139.0000 1.0000
52.6200 153.0000 1.0000
52.6300 142.0000 1.0000
52.6400 140.0000 1.0000
52.6500 142.0000 1.0000
52.6600 164.0000 1.0000
52.6700 174.0000 1.0000
52.6800 149.0000 1.0000
52.6900 159.0000 1.0000
52.7000 144.0000 1.0000
52.7100 140.0000 1.0000
52.7200 173.0000 1.0000
52.7300 153.0000 1.0000
52.7400 153.0000 1.0000
52.7500 159.0000 1.0000
52.7600 121.0000 1.0000
52.7700 134.0000 1.0000
52.7800 149.0000 1.0000
52.7900 157.0000 1.0000
52.8000 168.0000 1.0000
52.8100 134.0000 1.0000
52.8200 145.0000 1.0000
52.8300 150.0000 1.0000
52.8400 119.0000 1.0000
52.8500 155.0000 1.0000
52.8600 140.0000 1.0000
52.8700 160.0000 1.0000
52.8800 159.0000 1.0000
52.8900 154.0000 1.0000
52.9000 135.0000 1.0000
52.9100 151.0000 1.0000
52.9200 168.0000 1.0000
52.9300 141.0000 1.0000
52.9400 154.0000 1.0000
52.9500 160.0000 1.0000
52.9600 148.0000 1.0000
52.9700 164.0000 1.0000
52.9800 177.0000 1.0000
52.9900 161.0000 1.0000
53.0000 159.0000 1.0000
53.0100 171.0000 1.0000
53.0200 160.0000 1.0000
53.0300 147.0000 1.0000
53.0400 155.0000 1.0000
53.0500 143.0000 1.0000
53.0600 160.0000 1.0000
53.0700 152.0000 1.0000
53.0800 157.0000 1.0000
53.0900 164.0000 1.0000
53.1000 155.0000 1.0000
53.1100 143.0000 1.0000
53.1200 187.0000 1.0000
53.1300 143.0000 1.0000
53.1400 143.0000 1.0000
53.1500 140.0000 1.0000
53.1600 158.0000 1.0000
53.1700 163.0000 1.0000
53.1800 162.0000 1.0000
53.1900 179.0000 1.0000
53.2000 153.0000 1.0000
53.2100 154.0000 1.0000
53.2200 182.0000 1.0000
53.2300 160.0000 1.0000
53.2400 176.0000 1.0000
53.2500 154.0000 1.0000
53.2600 151.0000 1.0000
53.2700 159.0000 1.0000
53.2800 154.0000 1.0000
53.2900 121.0000 1.0000
53.3000 147.0000 1.0000
53.3100 153.0000 1.0000
53.3200 156.0000 1.0000
53.3300 160.0000 1.0000
53.3400 147.0000 1.0000
53.3500 154.0000 1.0000
53.3600 147.0000 1.0000
53.3700 140.0000 1.0000
53.3800 160.0000 1.0000
53.3900 152.0000 1.0000
53.4000 140.0000 1.0000
53.4100 179.0000 1.0000
53.4200 120.0000 1.0000
53.4300 135.0000 1.0000
53.4400 150.0000 1.0000
53.4500 175.0000 1.0000
53.4600 159.0000 1.0000
53.4700 169.0000 1.0000
53.4800 162.0000 1.0000
53.4900 148.0000 1.0000
53.5000 172.0000 1.0000
53.5100 151.0000 1.0000
53.5200 147.0000 1.0000
53.5300 145.0000 1.0000
53.5400 151.0000 1.0000
53.5500 163.0000 1.0000
53.5600 148.0000 1.0000
53.5700 151.0000 1.0000
53.5800 154.0000 1.0000
53.5900 139.0000 1.0000
53.6000 159.0000 1.0000
53.6100 149.0000 1.0000
53.6200 160.0000 1.0000
53.6300 158.0000 1.0000
53.6400 154.0000 1.0000
53.6500 150.0000 1.0000
53.6600 145.0000 1.0000
53.6700 150.0000 1.0000
53.6800 150.0000 1.0000
53.6900 140.0000 1.0000
53.7000 144.0000 1.0000
53.7100 149.0000 1.0000
53.7200 166.0000 1.0000
53.7300 139.0000 1.0000
53.7400 158.0000 1.0000
53.7500 154.0000 1.0000
53.7600 141.0000 1.0000
53.7700 152.0000 1.0000
53.7800 145.0000 1.0000
53.7900 145.0000 1.0000
53.8000 154.0000 1.0000
53.8100 146.0000 1.0000
53.8200 162.0000 1.0000
53.8300 150.0000 1.0000
53.8400 169.0000 1.0000
53.8500 131.0000 1.0000
53.8600 177.0000 1.0000
53.8700 169.0000 1.0000
53.8800 152.0000 1.0000
53.8900 141.0000 1.0000
53.9000 152.0000 1.0000
53.9100 161.0000 1.0000
53.9200 134.0000 1.0000
53.9300 171.0000 1.0000
53.9400 152.0000 1.0000
53.9500 164.0000 1.0000
53.9600 163.0000 1.0000
53.9700 139.0000 1.0000
53.9800 150.0000 1.0000
53.9900 181.0000 1.0000
54.0000 109.0000 1.0000
54.0100 144.0000 1.0000
54.0200 165.0000 1.0000
54.0300 148.0000 1.0000
54.0400 165.0000 1.0000
54.0500 139.0000 1.0000
54.0600 137.0000 1.0000
54.0700 153.0000 1.0000
54.0800 145.0000 1.0000
54.0900 162.0000 1.0000
54.1000 163.0000 1.0000
54.1100 138.0000 1.0000
54.1200 151.0000 1.0000
54.1300 130.0000 1.0000
54.1400 168.0000 1.0000
54.1500 143.0000 1.0000
54.1600 157.0000 1.0000
54.1700 126.0000 1.0000
54.1800 148.0000 1.0000
54.1900 178.0000 1.0000
54.2000 166.0000 1.0000
54.2100 139.0000 1.0000
54.2200 147.0000 1.0000
54.2300 182.0000 1.0000
54.2400 147.0000 1.0000
54.2500 150.0000 1.0000
54.2600 144.0000 1.0000
54.2700 183.0000 1.0000
54.2800 153.0000 1.0000
54.2900 136.0000 1.0000
54.3000 153.0000 1.0000
54.3100 132.0000 1.0000
54.3200 147.0000 1.0000
54.3300 147.0000 1.0000
54.3400 150.0000 1.0000
54.3500 160.0000 1.0000
54.3600 162.0000 1.0000
54.3700 156.0000 1.0000
54.3800 151.0000 1.0000
54.3900 136.0000 1.0000
54.4000 151.0000 1.0000
54.4100 167.0000 1.0000
54.4200 170.0000 1.0000
54.4300 153.0000 1.0000
54.4400 151.0000 1.0000
54.4500 161.0000 1.0000
54.4600 151.0000 1.0000
54.4700 140.0000 1.0000
54.4800 157.0000 1.0000
54.4900 154.0000 1.0000
54.5000 160.0000 1.0000
54.5100 146.0000 1.0000
54.5200 170.0000 1.0000
54.5300 164.0000 1.0000
54.5400 151.0000 1.0000
54.5500 159.0000 1.0000
54.5600 154.0000 1.0000
54.5700 138.0000 1.0000
54.5800 136.0000 1.0000
54.5900 128.0000 1.0000
54.6000 164.0000 1.0000
54.6100 176.0000 1.0000
54.6200 181.0000 1.0000
54.6300 168.0000 1.0000
54.6400 177.0000 1.0000
54.6500 131.0000 1.0000
54.6600 157.0000 1.0000
54.6700 158.0000 1.0000
54.6800 155.0000 1.0000
54.6900 165.0000 1.0000
54.7000 123.0000 1.0000
54.7100 148.0000 1.0000
54.7200 166.0000 1.0000
54.7300 157.0000 1.0000
54.7400 146.0000 1.0000
54.7500 161.0000 1.0000
54.7600 165.0000 1.0000
54.7700 154.0000 1.0000
54.7800 148.0000 1.0000
54.7900 158.0000 1.0000
54.8000 157.0000 1.0000
54.8100 143.0000 1.0000
54.8200 141.0000 1.0000
54.8300 161.0000 1.0000
54.8400 178.0000 1.0000
54.8500 151.0000 1.0000
54.8600 153.0000 1.0000
54.8700 162.0000 1.0000
54.8800 149.0000 1.0000
54.8900 149.0000 1.0000
54.9000 156.0000 1.0000
54.9100 167.0000 1.0000
54.9200 161.0000 1.0000
54.9300 172.0000 1.0000
54.9400 162.0000 1.0000
54.9500 144.0000 1.0000
54.9600 170.0000 1.0000
54.9700 149.0000 1.0000
54.9800 162.0000 1.0000
54.9900 159.0000 1.0000
55.0000 132.0000 1.0000
55.0100 156.0000 1.0000
55.0200 152.0000 1.0000
55.0300 142.0000 1.0000
55.0400 144.0000 1.0000
55.0500 157.0000 1.0000
55.0600 149.0000 1.0000
55.0700 160.0000 1.0000
55.0800 155.0000 1.0000
55.0900 148.0000 1.0000
55.1000 152.0000 1.0000
55.1100 130.0000 1.0000
55.1200 140.0000 1.0000
55.1300 170.0000 1.0000
55.1400 153.0000 1.0000
55.1500 158.0000 1.0000
55.1600 153.0000 1.0000
55.1700 165.0000 1.0000
55.1800 145.0000 1.0000
55.1900 154.0000 1.0000
55.2000 167.0000 1.0000
55.2100 141.0000 1.0000
55.2200 150.0000 1.0000
55.2300 191.0000 1.0000
55.2400 171.0000 1.0000
55.2500 165.0000 1.0000
55.2600 195.0000 1.0000
55.2700 155.0000 1.0000
55.2800 146.0000 1.0000
55.2900 140.0000 1.0000
55.3000 165.0000 1.0000
55.3100 153.0000 1.0000
55.3200 172.0000 1.0000
55.3300 147.0000 1.0000
55.3400 158.0000 1.0000
55.3500 186.0000 1.0000
55.3600 131.0000 1.0000
55.3700 164.0000 1.0000
55.3800 153.0000 1.0000
55.3900 160.0000 1.0000
55.4000 147.0000 1.0000
55.4100 153.0000 1.0000
55.4200 148.0000 1.0000
55.4300 156.0000 1.0000
55.4400 177.0000 1.0000
55.4500 169.0000 1.0000
55.4600 160.0000 1.0000
55.4700 155.0000 1.0000
55.4800 161.0000 1.0000
55.4900 168.0000 1.0000
55.5000 173.0000 1.0000
55.5100 160.0000 1.0000
55.5200 152.0000 1.0000
55.5300 165.0000 1.0000
55.5400 166.0000 1.0000
55.5500 169.0000 1.0000
55.5600 154.0000 1.0000
55.5700 145.0000 1.0000
55.5800 149.0000 1.0000
55.5900 159.0000 1.0000
55.6000 156.0000 1.0000
55.6100 160.0000 1.0000
55.6200 120.0000 1.0000
55.6300 154.0000 1.0000
55.6400 193.0000 1.0000
55.6500 148.0000 1.0000
55.6600 158.0000 1.0000
55.6700 135.0000 1.0000
55.6800 157.0000 1.0000
55.6900 135.0000 1.0000
55.7000 152.0000 1.0000
55.7100 158.0000 1.0000
55.7200 167.0000 1.0000
55.7300 178.0000 1.0000
55.7400 147.0000 1.0000
55.7500 151.0000 1.0000
55.7600 173.0000 1.0000
55.7700 133.0000 1.0000
55.7800 141.0000 1.0000
55.7900 154.0000 1.0000
55.8000 181.0000 1.0000
55.8100 147.0000 1.0000
55.8200 109.0000 1.0000
55.8300 151.0000 1.0000
55.8400 145.0000 1.0000
55.8500 139.0000 1.0000
55.8600 146.0000 1.0000
55.8700 172.0000 1.0000
55.8800 158.0000 1.0000
55.8900 157.0000 1.0000
55.9000 160.0000 1.0000
55.9100 161.0000 1.0000
55.9200 169.0000 1.0000
55.9300 167.0000 1.0000
55.9400 175.0000 1.0000
55.9500 125.0000 1.0000
55.9600 157.0000 1.0000
55.9700 155.0000 1.0000
55.9800 140.0000 1.0000
55.9900 146.0000 1.0000
56.0000 169.0000 1.0000
56.0100 136.0000 1.0000
56.0200 146.0000 1.0000
56.0300 151.0000 1.0000
56.0400 142.0000 1.0000
56.0500 163.0000 1.0000
56.0600 152.0000 1.0000
56.0700 139.0000 1.0000
56.0800 156.0000 1.0000
56.0900 149.0000 1.0000
56.1000 145.0000 1.0000
56.1100 176.0000 1.0000
56.1200 151.0000 1.0000
56.1300 131.0000 1.0000
56.1400 140.0000 1.0000
56.1500 150.0000 1.0000
56.1600 157.0000 1.0000
56.1700 169.0000 1.0000
56.1800 150.0000 1.0000
56.1900 158.0000 1.0000
56.2000 152.0000 1.0000
56.2100 155.0000 1.0000
56.2200 146.0000 1.0000
56.2300 154.0000 1.0000
56.2400 155.0000 1.0000
56.2500 161.0000 1.0000
56.2600 129.0000 1.0000
56.2700 153.0000 1.0000
56.2800 155.0000 1.0000
56.2900 170.0000 1.0000
56.3000 156.0000 1.0000
56.3100 158.0000 1.0000
56.3200 165.0000 1.0000
56.3300 169.0000 1.0000
56.3400 159.0000 1.0000
56.3500 161.0000 1.0000
56.3600 137.0000 1.0000
56.3700 134.0000 1.0000
56.3800 164.0000 1.0000
56.3900 150.0000 1.0000
56.4000 166.0000 1.0000
56.4100 144.0000 1.0000
56.4200 129.0000 1.0000
56.4300 142.0000 1.0000
56.4400 148.0000 1.0000
56.4500 158.0000 1.0000
56.4600 161.0000 1.0000
56.4700 137.0000 1.0000
56.4800 154.0000 1.0000
56.4900 167.0000 1.0000
56.5000 147.0000 1.0000
56.5100 168.0000 1.0000
56.5200 158.0000 1.0000
56.5300 147.0000 1.0000
56.5400 169.0000 1.0000
56.5500 152.0000 1.0000
56.5600 137.0000 1.0000
56.5700 152.0000 1.0000
56.5800 142.0000 1.0000
56.5900 134.0000 1.0000
56.6000 156.0000 1.0000
56.6100 145.0000 1.0000
56.6200 160.0000 1.0000
56.6300 135.0000 1.0000
56.6400 148.0000 1.0000
56.6500 140.0000 1.0000
56.6600 139.0000 1.0000
56.6700 141.0000 1.0000
56.6800 148.0000 1.0000
56.6900 154.0000 1.0000
56.7000 168.0000 1.0000
56.7100 161.0000 1.0000
56.7200 143.0000 1.0000
56.7300 145.0000 1.0000
56.7400 149.0000 1.0000
56.7500 139.0000 1.0000
56.7600 167.0000 1.0000
56.7700 171.0000 1.0000
56.7800 154.0000 1.0000
56.7900 137.0000 1.0000
56.8000 160.0000 1.0000
56.8100 140.0000 1.0000
56.8200 154.0000 1.0000
56.8300 148.0000 1.0000
56.8400 145.0000 1.0000
56.8500 153.0000 1.0000
56.8600 172.0000 1.0000
56.8700 167.0000 1.0000
56.8800 134.0000 1.0000
56.8900 135.0000 1.0000
56.9000 175.0000 1.0000
56.9100 144.0000 1.0000
56.9200 169.0000 1.0000
56.9300 155.0000 1.0000
56.9400 127.0000 1.0000
56.9500 138.0000 1.0000
56.9600 128.0000 1.0000
56.9700 165.0000 1.0000
56.9800 168.0000 1.0000
56.9900 157.0000 1.0000
57.0000 163.0000 1.0000
57.0100 159.0000 1.0000
57.0200 132.0000 1.0000
57.0300 176.0000 1.0000
57.0400 172.0000 1.0000
57.0500 165.0000 1.0000
57.0600 174.0000 1.0000
57.0700 144.0000 1.0000
57.0800 153.0000 1.0000
57.0900 158.0000 1.0000
57.1000 155.0000 1.0000
57.1100 178.0000 1.0000
57.1200 147.0000 1.0000
57.1300 141.0000 1.0000
57.1400 165.0000 1.0000
57.1500 161.0000 1.0000
57.1600 158.0000 1.0000
57.1700 147.0000 1.0000
57.1800 133.0000 1.0000
57.1900 136.0000 1.0000
57.2000 164.0000 1.0000
57.2100 177.0000 1.0000
57.2200 147.0000 1.0000
57.2300 163.0000 1.0000
57.2400 157.0000 1.0000
57.2500 161.0000 1.0000
57.2600 147.0000 1.0000
57.2700 155.0000 1.0000
57.2800 157.0000 1.0000
57.2900 167.0000 1.0000
57.3000 164.0000 1.0000
57.3100 147.0000 1.0000
57.3200 144.0000 1.0000
57.3300 153.0000 1.0000
57.3400 153.0000 1.0000
57.3500 163.0000 1.0000
57.3600 135.0000 1.0000
57.3700 145.0000 1.0000
57.3800 146.0000 1.0000
57.3900 167.0000 1.0000
57.4000 155.0000 1.0000
57.4100 155.0000 1.0000
57.4200 156.0000 1.0000
57.4300 150.0000 1.0000
57.4400 158.0000 1.0000
57.4500 140.0000 1.0000
57.4600 149.0000 1.0000
57.4700 170.0000 1.0000
57.4800 164.0000 1.0000
57.4900 155.0000 1.0000
57.5000 135.0000 1.0000
57.5100 156.0000 1.0000
57.5200 173.0000 1.0000
57.5300 152.0000 1.0000
57.5400 153.0000 1.0000
57.5500 186.0000 1.0000
57.5600 165.0000 1.0000
57.5700 164.0000 1.0000
57.5800 166.0000 1.0000
57.5900 163.0000 1.0000
57.6000 165.0000 1.0000
57.6100 154.0000 1.0000
57.6200 160.0000 1.0000
57.6300 159.0000 1.0000
57.6400 147.0000 1.0000
57.6500 164.0000 1.0000
57.6600 149.0000 1.0000
57.6700 142.0000 1.0000
57.6800 171.0000 1.0000
57.6900 144.0000 1.0000
57.7000 169.0000 1.0000
57.7100 154.0000 1.0000
57.7200 157.0000 1.0000
57.7300 129.0000 1.0000
57.7400 163.0000 1.0000
57.7500 150.0000 1.0000
57.7600 165.0000 1.0000
57.7700 143.0000 1.0000
57.7800 147.0000 1.0000
57.7900 175.0000 1.0000
57.8000 168.0000 1.0000
57.8100 163.0000 1.0000
57.8200 156.0000 1.0000
57.8300 150.0000 1.0000
57.8400 157.0000 1.0000
57.8500 136.0000 1.0000
57.8600 155.0000 1.0000
57.8700 169.0000 1.0000
57.8800 179.0000 1.0000
57.8900 160.0000 1.0000
57.9000 157.0000 1.0000
57.9100 146.0000 1.0000
57.9200 179.0000 1.0000
57.9300 168.0000 1.0000
57.9400 166.0000 1.0000
57.9500 161.0000 1.0000
57.9600 183.0000 1.0000
57.9700 152.0000 1.0000
57.9800 162.0000 1.0000
57.9900 153.0000 1.0000
58.0000 169.0000 1.0000
58.0100 151.0000 1.0000
58.0200 154.0000 1.0000
58.0300 150.0000 1.0000
58.0400 124.0000 1.0000
58.0500 161.0000 1.0000
58.0600 166.0000 1.0000
58.0700 161.0000 1.0000
58.0800 161.0000 1.0000
58.0900 160.0000 1.0000
58.1000 156.0000 1.0000
58.1100 168.0000 1.0000
58.1200 132.0000 1.0000
58.1300 152.0000 1.0000
58.1400 154.0000 1.0000
58.1500 153.0000 1.0000
58.1600 148.0000 1.0000
58.1700 154.0000 1.0000
58.1800 156.0000 1.0000
58.1900 146.0000 1.0000
58.2000 138.0000 1.0000
58.2100 167.0000 1.0000
58.2200 155.0000 1.0000
58.2300 170.0000 1.0000
58.2400 153.0000 1.0000
58.2500 165.0000 1.0000
58.2600 160.0000 1.0000
58.2700 144.0000 1.0000
58.2800 159.0000 1.0000
58.2900 164.0000 1.0000
58.3000 178.0000 1.0000
58.3100 154.0000 1.0000
58.3200 168.0000 1.0000
58.3300 167.0000 1.0000
58.3400 158.0000 1.0000
58.3500 143.0000 1.0000
58.3600 161.0000 1.0000
58.3700 144.0000 1.0000
58.3800 128.0000 1.0000
58.3900 155.0000 1.0000
58.4000 133.0000 1.0000
58.4100 166.0000 1.0000
58.4200 156.0000 1.0000
58.4300 169.0000 1.0000
58.4400 159.0000 1.0000
58.4500 148.0000 1.0000
58.4600 150.0000 1.0000
58.4700 162.0000 1.0000
58.4800 161.0000 1.0000
58.4900 163.0000 1.0000
58.5000 157.0000 1.0000
58.5100 151.0000 1.0000
58.5200 147.0000 1.0000
58.5300 157.0000 1.0000
58.5400 149.0000 1.0000
58.5500 158.0000 1.0000
58.5600 148.0000 1.0000
58.5700 143.0000 1.0000
58.5800 147.0000 1.0000
58.5900 130.0000 1.0000
58.6000 151.0000 1.0000
58.6100 153.0000 1.0000
58.6200 189.0000 1.0000
58.6300 129.0000 1.0000
58.6400 182.0000 1.0000
58.6500 155.0000 1.0000
58.6600 150.0000 1.0000
58.6700 169.0000 1.0000
58.6800 163.0000 1.0000
58.6900 144.0000 1.0000
58.7000 155.0000 1.0000
58.7100 184.0000 1.0000
58.7200 158.0000 1.0000
58.7300 166.0000 1.0000
58.7400 173.0000 1.0000
58.7500 171.0000 1.0000
58.7600 163.0000 1.0000
58.7700 186.0000 1.0000
58.7800 149.0000 1.0000
58.7900 152.0000 1.0000
58.8000 161.0000 1.0000
58.8100 163.0000 1.0000
58.8200 155.0000 1.0000
58.8300 146.0000 1.0000
58.8400 165.0000 1.0000
58.8500 153.0000 1.0000
58.8600 170.0000 1.0000
58.8700 135.0000 1.0000
58.8800 157.0000 1.0000
58.8900 148.0000 1.0000
58.9000 170.0000 1.0000
58.9100 150.0000 1.0000
58.9200 156.0000 1.0000
58.9300 139.0000 1.0000
58.9400 159.0000 1.0000
58.9500 152.0000 1.0000
58.9600 159.0000 1.0000
58.9700 167.0000 1.0000
58.9800 146.0000 1.0000
58.9900 166.0000 1.0000
59.0000 158.0000 1.0000
59.0100 174.0000 1.0000
59.0200 169.0000 1.0000
59.0300 150.0000 1.0000
59.0400 170.0000 1.0000
59.0500 152.0000 1.0000
59.0600 170.0000 1.0000
59.0700 141.0000 1.0000
59.0800 159.0000 1.0000
59.0900 149.0000 1.0000
59.1000 155.0000 1.0000
59.1100 178.0000 1.0000
59.1200 166.0000 1.0000
59.1300 162.0000 1.0000
59.1400 143.0000 1.0000
59.1500 141.0000 1.0000
59.1600 179.0000 1.0000
59.1700 160.0000 1.0000
59.1800 165.0000 1.0000
59.1900 160.0000 1.0000
59.2000 158.0000 1.0000
59.2100 155.0000 1.0000
59.2200 141.0000 1.0000
59.2300 161.0000 1.0000
59.2400 173.0000 1.0000
59.2500 155.0000 1.0000
59.2600 144.0000 1.0000
59.2700 154.0000 1.0000
59.2800 172.0000 1.0000
59.2900 161.0000 1.0000
59.3000 162.0000 1.0000
59.3100 164.0000 1.0000
59.3200 140.0000 1.0000
59.3300 138.0000 1.0000
59.3400 140.0000 1.0000
59.3500 147.0000 1.0000
59.3600 159.0000 1.0000
59.3700 134.0000 1.0000
59.3800 150.0000 1.0000
59.3900 147.0000 1.0000
59.4000 159.0000 1.0000
59.4100 149.0000 1.0000
59.4200 162.0000 1.0000
59.4300 163.0000 1.0000
59.4400 159.0000 1.0000
59.4500 159.0000 1.0000
59.4600 149.0000 1.0000
59.4700 141.0000 1.0000
59.4800 148.0000 1.0000
59.4900 158.0000 1.0000
59.5000 154.0000 1.0000
59.5100 172.0000 1.0000
59.5200 159.0000 1.0000
59.5300 150.0000 1.0000
59.5400 158.0000 1.0000
59.5500 137.0000 1.0000
59.5600 150.0000 1.0000
59.5700 175.0000 1.0000
59.5800 164.0000 1.0000
59.5900 148.0000 1.0000
59.6000 163.0000 1.0000
59.6100 145.0000 1.0000
59.6200 158.0000 1.0000
59.6300 147.0000 1.0000
59.6400 149.0000 1.0000
59.6500 156.0000 1.0000
59.6600 157.0000 1.0000
59.6700 147.0000 1.0000
59.6800 163.0000 1.0000
59.6900 157.0000 1.0000
59.7000 130.0000 1.0000
59.7100 143.0000 1.0000
59.7200 135.0000 1.0000
59.7300 172.0000 1.0000
59.7400 165.0000 1.0000
59.7500 166.0000 1.0000
59.7600 148.0000 1.0000
59.7700 158.0000 1.0000
59.7800 170.0000 1.0000
59.7900 171.0000 1.0000
59.8000 147.0000 1.0000
59.8100 159.0000 1.0000
59.8200 148.0000 1.0000
59.8300 190.0000 1.0000
59.8400 153.0000 1.0000
59.8500 169.0000 1.0000
59.8600 140.0000 1.0000
59.8700 137.0000 1.0000
59.8800 176.0000 1.0000
59.8900 166.0000 1.0000
59.9000 150.0000 1.0000
59.9100 150.0000 1.0000
59.9200 147.0000 1.0000
59.9300 166.0000 1.0000
59.9400 157.0000 1.0000
59.9500 168.0000 1.0000
59.9600 152.0000 1.0000
59.9700 144.0000 1.0000
59.9800 165.0000 1.0000
59.9900 141.0000 1.0000
60.0000 141.0000 1.0000
60.0100 158.0000 1.0000
60.0200 163.0000 1.0000
60.0300 155.0000 1.0000
60.0400 170.0000 1.0000
60.0500 163.0000 1.0000
60.0600 179.0000 1.0000
60.0700 158.0000 1.0000
60.0800 165.0000 1.0000
60.0900 150.0000 1.0000
60.1000 125.0000 1.0000
60.1100 178.0000 1.0000
60.1200 150.0000 1.0000
60.1300 145.0000 1.0000
60.1400 156.0000 1.0000
60.1500 169.0000 1.0000
60.1600 146.0000 1.0000
60.1700 154.0000 1.0000
60.1800 160.0000 1.0000
60.1900 131.0000 1.0000
60.2000 167.0000 1.0000
60.2100 142.0000 1.0000
60.2200 153.0000 1.0000
60.2300 159.0000 1.0000
60.2400 162.0000 1.0000
60.2500 173.0000 1.0000
60.2600 171.0000 1.0000
60.2700 185.0000 1.0000
60.2800 171.0000 1.0000
60.2900 150.0000 1.0000
60.3000 152.0000 1.0000
60.3100 159.0000 1.0000
60.3200 165.0000 1.0000
60.3300 151.0000 1.0000
60.3400 144.0000 1.0000
60.3500 133.0000 1.0000
60.3600 184.0000 1.0000
60.3700 168.0000 1.0000
60.3800 175.0000 1.0000
60.3900 174.0000 1.0000
60.4000 164.0000 1.0000
60.4100 172.0000 1.0000
60.4200 151.0000 1.0000
60.4300 165.0000 1.0000
60.4400 154.0000 1.0000
60.4500 159.0000 1.0000
60.4600 159.0000 1.0000
60.4700 141.0000 1.0000
60.4800 170.0000 1.0000
60.4900 148.0000 1.0000
60.5000 149.0000 1.0000
60.5100 159.0000 1.0000
60.5200 174.0000 1.0000
60.5300 158.0000 1.0000
60.5400 155.0000 1.0000
60.5500 148.0000 1.0000
60.5600 166.0000 1.0000
60.5700 167.0000 1.0000
60.5800 155.0000 1.0000
60.5900 177.0000 1.0000
60.6000 167.0000 1.0000
60.6100 158.0000 1.0000
60.6200 154.0000 1.0000
60.6300 177.0000 1.0000
60.6400 170.0000 1.0000
60.6500 168.0000 1.0000
60.6600 174.0000 1.0000
60.6700 166.0000 1.0000
60.6800 160.0000 1.0000
60.6900 197.0000 1.0000
60.7000 168.0000 1.0000
60.7100 147.0000 1.0000
60.7200 164.0000 1.0000
60.7300 156.0000 1.0000
60.7400 177.0000 1.0000
60.7500 160.0000 1.0000
60.7600 168.0000 1.0000
60.7700 175.0000 1.0000
60.7800 142.0000 1.0000
60.7900 162.0000 1.0000
60.8000 172.0000 1.0000
60.8100 147.0000 1.0000
60.8200 168.0000 1.0000
60.8300 153.0000 1.0000
60.8400 152.0000 1.0000
60.8500 150.0000 1.0000
60.8600 176.0000 1.0000
60.8700 164.0000 1.0000
60.8800 175.0000 1.0000
60.8900 164.0000 1.0000
60.9000 152.0000 1.0000
60.9100 168.0000 1.0000
60.9200 156.0000 1.0000
60.9300 160.0000 1.0000
60.9400 152.0000 1.0000
60.9500 163.0000 1.0000
60.9600 154.0000 1.0000
60.9700 155.0000 1.0000
60.9800 174.0000 1.0000
60.9900 168.0000 1.0000
61.0000 138.0000 1.0000
61.0100 182.0000 1.0000
61.0200 174.0000 1.0000
61.0300 146.0000 1.0000
61.0400 168.0000 1.0000
61.0500 172.0000 1.0000
61.0600 144.0000 1.0000
61.0700 159.0000 1.0000
61.0800 177.0000 1.0000
61.0900 152.0000 1.0000
61.1000 141.0000 1.0000
61.1100 188.0000 1.0000
61.1200 175.0000 1.0000
61.1300 151.0000 1.0000
61.1400 143.0000 1.0000
61.1500 160.0000 1.0000
61.1600 153.0000 1.0000
61.1700 163.0000 1.0000
61.1800 161.0000 1.0000
61.1900 153.0000 1.0000
61.2000 151.0000 1.0000
61.2100 155.0000 1.0000
61.2200 167.0000 1.0000
61.2300 164.0000 1.0000
61.2400 155.0000 1.0000
61.2500 170.0000 1.0000
61.2600 164.0000 1.0000
61.2700 144.0000 1.0000
61.2800 163.0000 1.0000
61.2900 159.0000 1.0000
61.3000 150.0000 1.0000
61.3100 168.0000 1.0000
61.3200 146.0000 1.0000
61.3300 162.0000 1.0000
61.3400 150.0000 1.0000
61.3500 146.0000 1.0000
61.3600 157.0000 1.0000
61.3700 159.0000 1.0000
61.3800 146.0000 1.0000
61.3900 171.0000 1.0000
61.4000 166.0000 1.0000
61.4100 172.0000 1.0000
61.4200 178.0000 1.0000
61.4300 147.0000 1.0000
61.4400 165.0000 1.0000
61.4500 162.0000 1.0000
61.4600 162.0000 1.0000
61.4700 153.0000 1.0000
61.4800 162.0000 1.0000
61.4900 152.0000 1.0000
61.5000 138.0000 1.0000
61.5100 148.0000 1.0000
61.5200 165.0000 1.0000
61.5300 165.0000 1.0000
61.5400 167.0000 1.0000
61.5500 149.0000 1.0000
61.5600 157.0000 1.0000
61.5700 162.0000 1.0000
61.5800 175.0000 1.0000
61.5900 161.0000 1.0000
61.6000 165.0000 1.0000
61.6100 174.0000 1.0000
61.6200 154.0000 1.0000
61.6300 169.0000 1.0000
61.6400 160.0000 1.0000
61.6500 157.0000 1.0000
61.6600 191.0000 1.0000
61.6700 161.0000 1.0000
61.6800 156.0000 1.0000
61.6900 177.0000 1.0000
61.7000 159.0000 1.0000
61.7100 155.0000 1.0000
61.7200 158.0000 1.0000
61.7300 157.0000 1.0000
61.7400 175.0000 1.0000
61.7500 153.0000 1.0000
61.7600 160.0000 1.0000
61.7700 152.0000 1.0000
61.7800 142.0000 1.0000
61.7900 155.0000 1.0000
61.8000 179.0000 1.0000
61.8100 160.0000 1.0000
61.8200 173.0000 1.0000
61.8300 153.0000 1.0000
61.8400 165.0000 1.0000
61.8500 164.0000 1.0000
61.8600 168.0000 1.0000
61.8700 145.0000 1.0000
61.8800 177.0000 1.0000
61.8900 146.0000 1.0000
61.9000 151.0000 1.0000
61.9100 169.0000 1.0000
61.9200 164.0000 1.0000
61.9300 151.0000 1.0000
61.9400 159.0000 1.0000
61.9500 141.0000 1.0000
61.9600 162.0000 1.0000
61.9700 135.0000 1.0000
61.9800 143.0000 1.0000
61.9900 165.0000 1.0000
62.0000 146.0000 1.0000
62.0100 163.0000 1.0000
62.0200 176.0000 1.0000
62.0300 169.0000 1.0000
62.0400 139.0000 1.0000
62.0500 170.0000 1.0000
62.0600 166.0000 1.0000
62.0700 175.0000 1.0000
62.0800 159.0000 1.0000
62.0900 156.0000 1.0000
62.1000 150.0000 1.0000
62.1100 150.0000 1.0000
62.1200 164.0000 1.0000
62.1300 157.0000 1.0000
62.1400 182.0000 1.0000
62.1500 171.0000 1.0000
62.1600 153.0000 1.0000
62.1700 156.0000 1.0000
62.1800 157.0000 1.0000
62.1900 144.0000 1.0000
62.2000 169.0000 1.0000
62.2100 159.0000 1.0000
62.2200 167.0000 1.0000
62.2300 143.0000 1.0000
62.2400 170.0000 1.0000
62.2500 167.0000 1.0000
62.2600 158.0000 1.0000
62.2700 157.0000 1.0000
62.2800 165.0000 1.0000
62.2900 180.0000 1.0000
62.3000 158.0000 1.0000
62.3100 158.0000 1.0000
62.3200 157.0000 1.0000
62.3300 164.0000 1.0000
62.3400 134.0000 1.0000
62.3500 180.0000 1.0000
62.3600 149.0000 1.0000
62.3700 165.0000 1.0000
62.3800 148.0000 1.0000
62.3900 156.0000 1.0000
62.4000 143.0000 1.0000
62.4100 180.0000 1.0000
62.4200 147.0000 1.0000
62.4300 180.0000 1.0000
62.4400 158.0000 1.0000
62.4500 167.0000 1.0000
62.4600 148.0000 1.0000
62.4700 147.0000 1.0000
62.4800 155.0000 1.0000
62.4900 155.0000 1.0000
62.5000 169.0000 1.0000
62.5100 160.0000 1.0000
62.5200 149.0000 1.0000
62.5300 161.0000 1.0000
62.5400 174.0000 1.0000
62.5500 165.0000 1.0000
62.5600 153.0000 1.0000
62.5700 176.0000 1.0000
62.5800 157.0000 1.0000
62.5900 164.0000 1.0000
62.6000 160.0000 1.0000
62.6100 147.0000 1.0000
62.6200 142.0000 1.0000
62.6300 144.0000 1.0000
62.6400 134.0000 1.0000
62.6500 189.0000 1.0000
62.6600 174.0000 1.0000
62.6700 181.0000 1.0000
62.6800 143.0000 1.0000
62.6900 157.0000 1.0000
62.7000 146.0000 1.0000
62.7100 162.0000 1.0000
62.7200 168.0000 1.0000
62.7300 173.0000 1.0000
62.7400 184.0000 1.0000
62.7500 138.0000 1.0000
62.7600 147.0000 1.0000
62.7700 140.0000 1.0000
62.7800 164.0000 1.0000
62.7900 167.0000 1.0000
62.8000 140.0000 1.0000
62.8100 171.0000 1.0000
62.8200 145.0000 1.0000
62.8300 150.0000 1.0000
62.8400 156.0000 1.0000
62.8500 143.0000 1.0000
62.8600 167.0000 1.0000
62.8700 156.0000 1.0000
62.8800 148.0000 1.0000
62.8900 159.0000 1.0000
62.9000 163.0000 1.0000
62.9100 182.0000 1.0000
62.9200 149.0000 1.0000
62.9300 151.0000 1.0000
62.9400 159.0000 1.0000
62.9500 173.0000 1.0000
62.9600 168.0000 1.0000
62.9700 171.0000 1.0000
62.9800 163.0000 1.0000
62.9900 157.0000 1.0000
63.0000 153.0000 1.0000
63.0100 155.0000 1.0000
63.0200 156.0000 1.0000
63.0300 170.0000 1.0000
63.0400 165.0000 1.0000
63.0500 162.0000 1.0000
63.0600 163.0000 1.0000
63.0700 160.0000 1.0000
63.0800 151.0000 1.0000
63.0900 155.0000 1.0000
63.1000 157.0000 1.0000
63.1100 154.0000 1.0000
63.1200 144.0000 1.0000
63.1300 133.0000 1.0000
63.1400 167.0000 1.0000
63.1500 170.0000 1.0000
63.1600 145.0000 1.0000
63.1700 166.0000 1.0000
63.1800 159.0000 1.0000
63.1900 131.0000 1.0000
63.2000 149.0000 1.0000
63.2100 141.0000 1.0000
63.2200 155.0000 1.0000
63.2300 160.0000 1.0000
63.2400 176.0000 1.0000
63.2500 167.0000 1.0000
63.2600 149.0000 1.0000
63.2700 147.0000 1.0000
63.2800 155.0000 1.0000
63.2900 190.0000 1.0000
63.3000 147.0000 1.0000
63.3100 173.0000 1.0000
63.3200 149.0000 1.0000
63.3300 144.0000 1.0000
63.3400 162.0000 1.0000
63.3500 162.0000 1.0000
63.3600 164.0000 1.0000
63.3700 145.0000 1.0000
63.3800 129.0000 1.0000
63.3900 146.0000 1.0000
63.4000 149.0000 1.0000
63.4100 147.0000 1.0000
63.4200 181.0000 1.0000
63.4300 148.0000 1.0000
63.4400 166.0000 1.0000
63.4500 151.0000 1.0000
63.4600 153.0000 1.0000
63.4700 151.0000 1.0000
63.4800 148.0000 1.0000
63.4900 174.0000 1.0000
63.5000 173.0000 1.0000
63.5100 144.0000 1.0000
63.5200 144.0000 1.0000
63.5300 183.0000 1.0000
63.5400 137.0000 1.0000
63.5500 154.0000 1.0000
63.5600 155.0000 1.0000
63.5700 156.0000 1.0000
63.5800 164.0000 1.0000
63.5900 153.0000 1.0000
63.6000 163.0000 1.0000
63.6100 154.0000 1.0000
63.6200 153.0000 1.0000
63.6300 168.0000 1.0000
63.6400 162.0000 1.0000
63.6500 177.0000 1.0000
63.6600 197.0000 1.0000
63.6700 164.0000 1.0000
63.6800 151.0000 1.0000
63.6900 177.0000 1.0000
63.7000 162.0000 1.0000
63.7100 178.0000 1.0000
63.7200 152.0000 1.0000
63.7300 143.0000 1.0000
63.7400 186.0000 1.0000
63.7500 164.0000 1.0000
63.7600 150.0000 1.0000
63.7700 141.0000 1.0000
63.7800 161.0000 1.0000
63.7900 173.0000 1.0000
63.8000 182.0000 1.0000
63.8100 161.0000 1.0000
63.8200 153.0000 1.0000
63.8300 178.0000 1.0000
63.8400 165.0000 1.0000
63.8500 152.0000 1.0000
63.8600 145.0000 1.0000
63.8700 168.0000 1.0000
63.8800 141.0000 1.0000
63.8900 160.0000 1.0000
63.9000 154.0000 1.0000
63.9100 166.0000 1.0000
63.9200 174.0000 1.0000
63.9300 171.0000 1.0000
63.9400 154.0000 1.0000
63.9500 193.0000 1.0000
63.9600 176.0000 1.0000
63.9700 173.0000 1.0000
63.9800 176.0000 1.0000
63.9900 168.0000 1.0000
64.0000 160.0000 1.0000
64.0100 165.0000 1.0000
64.0200 163.0000 1.0000
64.0300 152.0000 1.0000
64.0400 148.0000 1.0000
64.0500 175.0000 1.0000
64.0600 192.0000 1.0000
64.0700 160.0000 1.0000
64.0800 147.0000 1.0000
64.0900 134.0000 1.0000
64.1000 152.0000 1.0000
64.1100 152.0000 1.0000
64.1200 171.0000 1.0000
64.1300 174.0000 1.0000
64.1400 173.0000 1.0000
64.1500 170.0000 1.0000
64.1600 174.0000 1.0000
64.1700 207.0000 1.0000
64.1800 185.0000 1.0000
64.1900 160.0000 1.0000
64.2000 150.0000 1.0000
64.2100 173.0000 1.0000
64.2200 166.0000 1.0000
64.2300 153.0000 1.0000
64.2400 171.0000 1.0000
64.2500 171.0000 1.0000
64.2600 150.0000 1.0000
64.2700 179.0000 1.0000
64.2800 165.0000 1.0000
64.2900 173.0000 1.0000
64.3000 188.0000 1.0000
64.3100 173.0000 1.0000
64.3200 201.0000 1.0000
64.3300 193.0000 1.0000
64.3400 200.0000 1.0000
64.3500 182.0000 1.0000
64.3600 199.0000 1.0000
64.3700 192.0000 1.0000
64.3800 180.0000 1.0000
64.3900 187.0000 1.0000
64.4000 190.0000 1.0000
64.4100 182.0000 1.0000
64.4200 199.0000 1.0000
64.4300 196.0000 1.0000
64.4400 188.0000 1.0000
64.4500 168.0000 1.0000
64.4600 186.0000 1.0000
64.4700 203.0000 1.0000
64.4800 168.0000 1.0000
64.4900 182.0000 1.0000
64.5000 206.0000 1.0000
64.5100 188.0000 1.0000
64.5200 193.0000 1.0000
64.5300 173.0000 1.0000
64.5400 184.0000 1.0000
64.5500 179.0000 1.0000
64.5600 205.0000 1.0000
64.5700 190.0000 1.0000
64.5800 174.0000 1.0000
64.5900 169.0000 1.0000
64.6000 181.0000 1.0000
64.6100 181.0000 1.0000
64.6200 231.0000 1.0000
64.6300 170.0000 1.0000
64.6400 171.0000 1.0000
64.6500 196.0000 1.0000
64.6600 177.0000 1.0000
64.6700 190.0000 1.0000
64.6800 188.0000 1.0000
64.6900 195.0000 1.0000
64.7000 200.0000 1.0000
64.7100 172.0000 1.0000
64.7200 153.0000 1.0000
64.7300 173.0000 1.0000
64.7400 188.0000 1.0000
64.7500 185.0000 1.0000
64.7600 172.0000 1.0000
64.7700 185.0000 1.0000
64.7800 170.0000 1.0000
64.7900 178.0000 1.0000
64.8000 182.0000 1.0000
64.8100 170.0000 1.0000
64.8200 196.0000 1.0000
64.8300 183.0000 1.0000
64.8400 177.0000 1.0000
64.8500 151.0000 1.0000
64.8600 165.0000 1.0000
64.8700 160.0000 1.0000
64.8800 179.0000 1.0000
64.8900 173.0000 1.0000
64.9000 177.0000 1.0000
64.9100 182.0000 1.0000
64.9200 184.0000 1.0000
64.9300 177.0000 1.0000
64.9400 188.0000 1.0000
64.9500 168.0000 1.0000
64.9600 158.0000 1.0000
64.9700 137.0000 1.0000
64.9800 173.0000 1.0000
64.9900 198.0000 1.0000
65.0000 190.0000 1.0000
65.0100 190.0000 1.0000
65.0200 170.0000 1.0000
65.0300 164.0000 1.0000
65.0400 174.0000 1.0000
65.0500 165.0000 1.0000
65.0600 160.0000 1.0000
65.0700 169.0000 1.0000
65.0800 174.0000 1.0000
65.0900 168.0000 1.0000
65.1000 166.0000 1.0000
65.1100 158.0000 1.0000
65.1200 177.0000 1.0000
65.1300 168.0000 1.0000
65.1400 154.0000 1.0000
65.1500 166.0000 1.0000
65.1600 176.0000 1.0000
65.1700 176.0000 1.0000
65.1800 165.0000 1.0000
65.1900 161.0000 1.0000
65.2000 145.0000 1.0000
65.2100 154.0000 1.0000
65.2200 169.0000 1.0000
65.2300 141.0000 1.0000
65.2400 165.0000 1.0000
65.2500 177.0000 1.0000
65.2600 163.0000 1.0000
65.2700 166.0000 1.0000
65.2800 153.0000 1.0000
65.2900 136.0000 1.0000
65.3000 162.0000 1.0000
65.3100 173.0000 1.0000
65.3200 155.0000 1.0000
65.3300 164.0000 1.0000
65.3400 180.0000 1.0000
65.3500 174.0000 1.0000
65.3600 178.0000 1.0000
65.3700 160.0000 1.0000
65.3800 156.0000 1.0000
65.3900 150.0000 1.0000
65.4000 158.0000 1.0000
65.4100 161.0000 1.0000
65.4200 164.0000 1.0000
65.4300 145.0000 1.0000
65.4400 153.0000 1.0000
65.4500 168.0000 1.0000
65.4600 154.0000 1.0000
65.4700 169.0000 1.0000
65.4800 150.0000 1.0000
65.4900 168.0000 1.0000
65.5000 167.0000 1.0000
65.5100 162.0000 1.0000
65.5200 166.0000 1.0000
65.5300 158.0000 1.0000
65.5400 152.0000 1.0000
65.5500 163.0000 1.0000
65.5600 147.0000 1.0000
65.5700 166.0000 1.0000
65.5800 183.0000 1.0000
65.5900 165.0000 1.0000
65.6000 158.0000 1.0000
65.6100 156.0000 1.0000
65.6200 149.0000 1.0000
65.6300 180.0000 1.0000
65.6400 161.0000 1.0000
65.6500 145.0000 1.0000
65.6600 168.0000 1.0000
65.6700 178.0000 1.0000
65.6800 179.0000 1.0000
65.6900 150.0000 1.0000
65.7000 151.0000 1.0000
65.7100 163.0000 1.0000
65.7200 176.0000 1.0000
65.7300 177.0000 1.0000
65.7400 156.0000 1.0000
65.7500 159.0000 1.0000
65.7600 170.0000 1.0000
65.7700 180.0000 1.0000
65.7800 175.0000 1.0000
65.7900 164.0000 1.0000
65.8000 154.0000 1.0000
65.8100 158.0000 1.0000
65.8200 176.0000 1.0000
65.8300 158.0000 1.0000
65.8400 175.0000 1.0000
65.8500 167.0000 1.0000
65.8600 162.0000 1.0000
65.8700 171.0000 1.0000
65.8800 160.0000 1.0000
65.8900 148.0000 1.0000
65.9000 151.0000 1.0000
65.9100 180.0000 1.0000
65.9200 168.0000 1.0000
65.9300 154.0000 1.0000
65.9400 156.0000 1.0000
65.9500 151.0000 1.0000
65.9600 183.0000 1.0000
65.9700 157.0000 1.0000
65.9800 167.0000 1.0000
65.9900 159.0000 1.0000
66.0000 154.0000 1.0000
66.0100 172.0000 1.0000
66.0200 161.0000 1.0000
66.0300 148.0000 1.0000
66.0400 155.0000 1.0000
66.0500 158.0000 1.0000
66.0600 158.0000 1.0000
66.0700 151.0000 1.0000
66.0800 145.0000 1.0000
66.0900 173.0000 1.0000
66.1000 146.0000 1.0000
66.1100 144.0000 1.0000
66.1200 148.0000 1.0000
66.1300 166.0000 1.0000
66.1400 144.0000 1.0000
66.1500 153.0000 1.0000
66.1600 145.0000 1.0000
66.1700 160.0000 1.0000
66.1800 156.0000 1.0000
66.1900 156.0000 1.0000
66.2000 149.0000 1.0000
66.2100 176.0000 1.0000
66.2200 175.0000 1.0000
66.2300 161.0000 1.0000
66.2400 171.0000 1.0000
66.2500 149.0000 1.0000
66.2600 165.0000 1.0000
66.2700 136.0000 1.0000
66.2800 154.0000 1.0000
66.2900 180.0000 1.0000
66.3000 160.0000 1.0000
66.3100 164.0000 1.0000
66.3200 155.0000 1.0000
66.3300 155.0000 1.0000
66.3400 167.0000 1.0000
66.3500 132.0000 1.0000
66.3600 130.0000 1.0000
66.3700 170.0000 1.0000
66.3800 152.0000 1.0000
66.3900 174.0000 1.0000
66.4000 163.0000 1.0000
66.4100 148.0000 1.0000
66.4200 153.0000 1.0000
66.4300 172.0000 1.0000
66.4400 172.0000 1.0000
66.4500 164.0000 1.0000
66.4600 164.0000 1.0000
66.4700 144.0000 1.0000
66.4800 151.0000 1.0000
66.4900 160.0000 1.0000
66.5000 156.0000 1.0000
66.5100 159.0000 1.0000
66.5200 152.0000 1.0000
66.5300 152.0000 1.0000
66.5400 150.0000 1.0000
66.5500 168.0000 1.0000
66.5600 140.0000 1.0000
66.5700 173.0000 1.0000
66.5800 153.0000 1.0000
66.5900 141.0000 1.0000
66.6000 171.0000 1.0000
66.6100 158.0000 1.0000
66.6200 176.0000 1.0000
66.6300 150.0000 1.0000
66.6400 138.0000 1.0000
66.6500 177.0000 1.0000
66.6600 134.0000 1.0000
66.6700 151.0000 1.0000
66.6800 183.0000 1.0000
66.6900 157.0000 1.0000
66.7000 164.0000 1.0000
66.7100 158.0000 1.0000
66.7200 163.0000 1.0000
66.7300 165.0000 1.0000
66.7400 155.0000 1.0000
66.7500 173.0000 1.0000
66.7600 154.0000 1.0000
66.7700 183.0000 1.0000
66.7800 181.0000 1.0000
66.7900 164.0000 1.0000
66.8000 151.0000 1.0000
66.8100 163.0000 1.0000
66.8200 174.0000 1.0000
66.8300 170.0000 1.0000
66.8400 175.0000 1.0000
66.8500 166.0000 1.0000
66.8600 172.0000 1.0000
66.8700 176.0000 1.0000
66.8800 164.0000 1.0000
66.8900 177.0000 1.0000
66.9000 155.0000 1.0000
66.9100 162.0000 1.0000
66.9200 161.0000 1.0000
66.9300 168.0000 1.0000
66.9400 162.0000 1.0000
66.9500 169.0000 1.0000
66.9600 153.0000 1.0000
66.9700 144.0000 1.0000
66.9800 160.0000 1.0000
66.9900 172.0000 1.0000
67.0000 165.0000 1.0000
67.0100 165.0000 1.0000
67.0200 142.0000 1.0000
67.0300 171.0000 1.0000
67.0400 184.0000 1.0000
67.0500 153.0000 1.0000
67.0600 160.0000 1.0000
67.0700 158.0000 1.0000
67.0800 143.0000 1.0000
67.0900 175.0000 1.0000
67.1000 171.0000 1.0000
67.1100 151.0000 1.0000
67.1200 159.0000 1.0000
67.1300 158.0000 1.0000
67.1400 171.0000 1.0000
67.1500 162.0000 1.0000
67.1600 149.0000 1.0000
67.1700 170.0000 1.0000
67.1800 158.0000 1.0000
67.1900 138.0000 1.0000
67.2000 154.0000 1.0000
67.2100 181.0000 1.0000
67.2200 146.0000 1.0000
67.2300 168.0000 1.0000
67.2400 184.0000 1.0000
67.2500 158.0000 1.0000
67.2600 185.0000 1.0000
67.2700 168.0000 1.0000
67.2800 179.0000 1.0000
67.2900 151.0000 1.0000
67.3000 170.0000 1.0000
67.3100 181.0000 1.0000
67.3200 170.0000 1.0000
67.3300 178.0000 1.0000
67.3400 161.0000 1.0000
67.3500 176.0000 1.0000
67.3600 164.0000 1.0000
67.3700 140.0000 1.0000
67.3800 177.0000 1.0000
67.3900 151.0000 1.0000
67.4000 178.0000 1.0000
67.4100 140.0000 1.0000
67.4200 149.0000 1.0000
67.4300 170.0000 1.0000
67.4400 150.0000 1.0000
67.4500 166.0000 1.0000
67.4600 176.0000 1.0000
67.4700 156.0000 1.0000
67.4800 159.0000 1.0000
67.4900 163.0000 1.0000
67.5000 163.0000 1.0000
67.5100 143.0000 1.0000
67.5200 168.0000 1.0000
67.5300 176.0000 1.0000
67.5400 182.0000 1.0000
67.5500 177.0000 1.0000
67.5600 163.0000 1.0000
67.5700 155.0000 1.0000
67.5800 176.0000 1.0000
67.5900 162.0000 1.0000
67.6000 162.0000 1.0000
67.6100 154.0000 1.0000
67.6200 141.0000 1.0000
67.6300 153.0000 1.0000
67.6400 191.0000 1.0000
67.6500 161.0000 1.0000
67.6600 168.0000 1.0000
67.6700 169.0000 1.0000
67.6800 169.0000 1.0000
67.6900 154.0000 1.0000
67.7000 167.0000 1.0000
67.7100 162.0000 1.0000
67.7200 152.0000 1.0000
67.7300 180.0000 1.0000
67.7400 173.0000 1.0000
67.7500 134.0000 1.0000
67.7600 168.0000 1.0000
67.7700 176.0000 1.0000
67.7800 148.0000 1.0000
67.7900 186.0000 1.0000
67.8000 156.0000 1.0000
67.8100 146.0000 1.0000
67.8200 176.0000 1.0000
67.8300 144.0000 1.0000
67.8400 151.0000 1.0000
67.8500 166.0000 1.0000
67.8600 153.0000 1.0000
67.8700 161.0000 1.0000
67.8800 163.0000 1.0000
67.8900 156.0000 1.0000
67.9000 164.0000 1.0000
67.9100 191.0000 1.0000
67.9200 143.0000 1.0000
67.9300 174.0000 1.0000
67.9400 147.0000 1.0000
67.9500 176.0000 1.0000
67.9600 156.0000 1.0000
67.9700 173.0000 1.0000
67.9800 169.0000 1.0000
67.9900 150.0000 1.0000
68.0000 164.0000 1.0000
68.0100 157.0000 1.0000
68.0200 157.0000 1.0000
68.0300 155.0000 1.0000
68.0400 173.0000 1.0000
68.0500 149.0000 1.0000
68.0600 171.0000 1.0000
68.0700 158.0000 1.0000
68.0800 153.0000 1.0000
68.0900 159.0000 1.0000
68.1000 174.0000 1.0000
68.1100 172.0000 1.0000
68.1200 150.0000 1.0000
68.1300 182.0000 1.0000
68.1400 148.0000 1.0000
68.1500 165.0000 1.0000
68.1600 174.0000 1.0000
68.1700 157.0000 1.0000
68.1800 165.0000 1.0000
68.1900 160.0000 1.0000
68.2000 151.0000 1.0000
68.2100 173.0000 1.0000
68.2200 156.0000 1.0000
68.2300 165.0000 1.0000
68.2400 148.0000 1.0000
68.2500 184.0000 1.0000
68.2600 144.0000 1.0000
68.2700 158.0000 1.0000
68.2800 157.0000 1.0000
68.2900 143.0000 1.0000
68.3000 152.0000 1.0000
68.3100 149.0000 1.0000
68.3200 195.0000 1.0000
68.3300 160.0000 1.0000
68.3400 164.0000 1.0000
68.3500 154.0000 1.0000
68.3600 158.0000 1.0000
68.3700 153.0000 1.0000
68.3800 157.0000 1.0000
68.3900 172.0000 1.0000
68.4000 163.0000 1.0000
68.4100 171.0000 1.0000
68.4200 157.0000 1.0000
68.4300 161.0000 1.0000
68.4400 171.0000 1.0000
68.4500 165.0000 1.0000
68.4600 189.0000 1.0000
68.4700 147.0000 1.0000
68.4800 150.0000 1.0000
68.4900 151.0000 1.0000
68.5000 139.0000 1.0000
68.5100 164.0000 1.0000
68.5200 156.0000 1.0000
68.5300 144.0000 1.0000
68.5400 183.0000 1.0000
68.5500 152.0000 1.0000
68.5600 158.0000 1.0000
68.5700 168.0000 1.0000
68.5800 168.0000 1.0000
68.5900 158.0000 1.0000
68.6000 179.0000 1.0000
68.6100 153.0000 1.0000
68.6200 152.0000 1.0000
68.6300 163.0000 1.0000
68.6400 147.0000 1.0000
68.6500 174.0000 1.0000
68.6600 150.0000 1.0000
68.6700 177.0000 1.0000
68.6800 189.0000 1.0000
68.6900 160.0000 1.0000
68.7000 149.0000 1.0000
68.7100 165.0000 1.0000
68.7200 163.0000 1.0000
68.7300 153.0000 1.0000
68.7400 166.0000 1.0000
68.7500 176.0000 1.0000
68.7600 168.0000 1.0000
68.7700 184.0000 1.0000
68.7800 184.0000 1.0000
68.7900 141.0000 1.0000
68.8000 193.0000 1.0000
68.8100 135.0000 1.0000
68.8200 169.0000 1.0000
68.8300 136.0000 1.0000
68.8400 167.0000 1.0000
68.8500 157.0000 1.0000
68.8600 202.0000 1.0000
68.8700 179.0000 1.0000
68.8800 144.0000 1.0000
68.8900 168.0000 1.0000
68.9000 160.0000 1.0000
68.9100 165.0000 1.0000
68.9200 167.0000 1.0000
68.9300 154.0000 1.0000
68.9400 153.0000 1.0000
68.9500 151.0000 1.0000
68.9600 198.0000 1.0000
68.9700 171.0000 1.0000
68.9800 164.0000 1.0000
68.9900 186.0000 1.0000
69.0000 176.0000 1.0000
69.0100 164.0000 1.0000
69.0200 174.0000 1.0000
69.0300 159.0000 1.0000
69.0400 153.0000 1.0000
69.0500 139.0000 1.0000
69.0600 161.0000 1.0000
69.0700 159.0000 1.0000
69.0800 172.0000 1.0000
69.0900 169.0000 1.0000
69.1000 164.0000 1.0000
69.1100 158.0000 1.0000
69.1200 177.0000 1.0000
69.1300 166.0000 1.0000
69.1400 166.0000 1.0000
69.1500 161.0000 1.0000
69.1600 156.0000 1.0000
69.1700 173.0000 1.0000
69.1800 159.0000 1.0000
69.1900 141.0000 1.0000
69.2000 179.0000 1.0000
69.2100 166.0000 1.0000
69.2200 172.0000 1.0000
69.2300 177.0000 1.0000
69.2400 172.0000 1.0000
69.2500 175.0000 1.0000
69.2600 194.0000 1.0000
69.2700 141.0000 1.0000
69.2800 144.0000 1.0000
69.2900 174.0000 1.0000
69.3000 145.0000 1.0000
69.3100 154.0000 1.0000
69.3200 159.0000 1.0000
69.3300 182.0000 1.0000
69.3400 167.0000 1.0000
69.3500 149.0000 1.0000
69.3600 155.0000 1.0000
69.3700 171.0000 1.0000
69.3800 183.0000 1.0000
69.3900 165.0000 1.0000
69.4000 175.0000 1.0000
69.4100 164.0000 1.0000
69.4200 184.0000 1.0000
69.4300 167.0000 1.0000
69.4400 173.0000 1.0000
69.4500 161.0000 1.0000
69.4600 164.0000 1.0000
69.4700 173.0000 1.0000
69.4800 164.0000 1.0000
69.4900 172.0000 1.0000
69.5000 164.0000 1.0000
69.5100 160.0000 1.0000
69.5200 164.0000 1.0000
69.5300 168.0000 1.0000
69.5400 131.0000 1.0000
69.5500 185.0000 1.0000
69.5600 161.0000 1.0000
69.5700 143.0000 1.0000
69.5800 162.0000 1.0000
69.5900 179.0000 1.0000
69.6000 180.0000 1.0000
69.6100 131.0000 1.0000
69.6200 170.0000 1.0000
69.6300 179.0000 1.0000
69.6400 174.0000 1.0000
69.6500 179.0000 1.0000
69.6600 161.0000 1.0000
69.6700 164.0000 1.0000
69.6800 174.0000 1.0000
69.6900 159.0000 1.0000
69.7000 164.0000 1.0000
69.7100 150.0000 1.0000
69.7200 160.0000 1.0000
69.7300 154.0000 1.0000
69.7400 165.0000 1.0000
69.7500 176.0000 1.0000
69.7600 172.0000 1.0000
69.7700 199.0000 1.0000
69.7800 162.0000 1.0000
69.7900 179.0000 1.0000
69.8000 157.0000 1.0000
69.8100 162.0000 1.0000
69.8200 152.0000 1.0000
69.8300 171.0000 1.0000
69.8400 153.0000 1.0000
69.8500 153.0000 1.0000
69.8600 185.0000 1.0000
69.8700 183.0000 1.0000
69.8800 154.0000 1.0000
69.8900 185.0000 1.0000
69.9000 170.0000 1.0000
69.9100 192.0000 1.0000
69.9200 168.0000 1.0000
69.9300 160.0000 1.0000
69.9400 166.0000 1.0000
69.9500 151.0000 1.0000
69.9600 167.0000 1.0000
69.9700 147.0000 1.0000
69.9800 150.0000 1.0000
69.9900 181.0000 1.0000
70.0000 157.0000 1.0000
70.0100 135.0000 1.0000
70.0200 156.0000 1.0000
70.0300 175.0000 1.0000
70.0400 164.0000 1.0000
70.0500 170.0000 1.0000
70.0600 152.0000 1.0000
70.0700 166.0000 1.0000
70.0800 145.0000 1.0000
70.0900 153.0000 1.0000
70.1000 181.0000 1.0000
70.1100 154.0000 1.0000
70.1200 173.0000 1.0000
70.1300 179.0000 1.0000
70.1400 155.0000 1.0000
70.1500 176.0000 1.0000
70.1600 158.0000 1.0000
70.1700 162.0000 1.0000
70.1800 169.0000 1.0000
70.1900 186.0000 1.0000
70.2000 179.0000 1.0000
70.2100 155.0000 1.0000
70.2200 165.0000 1.0000
70.2300 161.0000 1.0000
70.2400 175.0000 1.0000
70.2500 170.0000 1.0000
70.2600 187.0000 1.0000
70.2700 154.0000 1.0000
70.2800 165.0000 1.0000
70.2900 156.0000 1.0000
70.3000 142.0000 1.0000
70.3100 167.0000 1.0000
70.3200 173.0000 1.0000
70.3300 129.0000 1.0000
70.3400 169.0000 1.0000
70.3500 175.0000 1.0000
70.3600 172.0000 1.0000
70.3700 167.0000 1.0000
70.3800 160.0000 1.0000
70.3900 164.0000 1.0000
70.4000 169.0000 1.0000
70.4100 163.0000 1.0000
70.4200 177.0000 1.0000
70.4300 160.0000 1.0000
70.4400 183.0000 1.0000
70.4500 176.0000 1.0000
70.4600 163.0000 1.0000
70.4700 174.0000 1.0000
70.4800 171.0000 1.0000
70.4900 178.0000 1.0000
70.5000 148.0000 1.0000
70.5100 172.0000 1.0000
70.5200 168.0000 1.0000
70.5300 181.0000 1.0000
70.5400 168.0000 1.0000
70.5500 136.0000 1.0000
70.5600 168.0000 1.0000
70.5700 168.0000 1.0000
70.5800 138.0000 1.0000
70.5900 159.0000 1.0000
70.6000 155.0000 1.0000
70.6100 158.0000 1.0000
70.6200 148.0000 1.0000
70.6300 152.0000 1.0000
70.6400 150.0000 1.0000
70.6500 166.0000 1.0000
70.6600 163.0000 1.0000
70.6700 157.0000 1.0000
70.6800 154.0000 1.0000
70.6900 176.0000 1.0000
70.7000 144.0000 1.0000
70.7100 160.0000 1.0000
70.7200 166.0000 1.0000
70.7300 154.0000 1.0000
70.7400 173.0000 1.0000
70.7500 180.0000 1.0000
70.7600 173.0000 1.0000
70.7700 167.0000 1.0000
70.7800 140.0000 1.0000
70.7900 144.0000 1.0000
70.8000 164.0000 1.0000
70.8100 152.0000 1.0000
70.8200 156.0000 1.0000
70.8300 154.0000 1.0000
70.8400 182.0000 1.0000
70.8500 182.0000 1.0000
70.8600 166.0000 1.0000
70.8700 150.0000 1.0000
70.8800 169.0000 1.0000
70.8900 166.0000 1.0000
70.9000 175.0000 1.0000
70.9100 156.0000 1.0000
70.9200 183.0000 1.0000
70.9300 184.0000 1.0000
70.9400 180.0000 1.0000
70.9500 156.0000 1.0000
70.9600 149.0000 1.0000
70.9700 177.0000 1.0000
70.9800 164.0000 1.0000
70.9900 168.0000 1.0000
71.0000 166.0000 1.0000
71.0100 164.0000 1.0000
71.0200 166.0000 1.0000
71.0300 143.0000 1.0000
71.0400 158.0000 1.0000
71.0500 152.0000 1.0000
71.0600 160.0000 1.0000
71.0700 176.0000 1.0000
71.0800 156.0000 1.0000
71.0900 153.0000 1.0000
71.1000 173.0000 1.0000
71.1100 144.0000 1.0000
71.1200 192.0000 1.0000
71.1300 150.0000 1.0000
71.1400 174.0000 1.0000
71.1500 164.0000 1.0000
71.1600 153.0000 1.0000
71.1700 148.0000 1.0000
71.1800 171.0000 1.0000
71.1900 176.0000 1.0000
71.2000 182.0000 1.0000
71.2100 131.0000 1.0000
71.2200 173.0000 1.0000
71.2300 154.0000 1.0000
71.2400 157.0000 1.0000
71.2500 151.0000 1.0000
71.2600 161.0000 1.0000
71.2700 153.0000 1.0000
71.2800 171.0000 1.0000
71.2900 198.0000 1.0000
71.3000 177.0000 1.0000
71.3100 203.0000 1.0000
71.3200 182.0000 1.0000
71.3300 157.0000 1.0000
71.3400 169.0000 1.0000
71.3500 180.0000 1.0000
71.3600 165.0000 1.0000
71.3700 172.0000 1.0000
71.3800 179.0000 1.0000
71.3900 174.0000 1.0000
71.4000 168.0000 1.0000
71.4100 178.0000 1.0000
71.4200 151.0000 1.0000
71.4300 160.0000 1.0000
71.4400 186.0000 1.0000
71.4500 181.0000 1.0000
71.4600 176.0000 1.0000
71.4700 156.0000 1.0000
71.4800 172.0000 1.0000
71.4900 182.0000 1.0000
71.5000 163.0000 1.0000
71.5100 155.0000 1.0000
71.5200 150.0000 1.0000
71.5300 158.0000 1.0000
71.5400 201.0000 1.0000
71.5500 175.0000 1.0000
71.5600 163.0000 1.0000
71.5700 167.0000 1.0000
71.5800 173.0000 1.0000
71.5900 159.0000 1.0000
71.6000 161.0000 1.0000
71.6100 157.0000 1.0000
71.6200 171.0000 1.0000
71.6300 169.0000 1.0000
71.6400 163.0000 1.0000
71.6500 162.0000 1.0000
71.6600 146.0000 1.0000
71.6700 180.0000 1.0000
71.6800 177.0000 1.0000
71.6900 178.0000 1.0000
71.7000 141.0000 1.0000
71.7100 164.0000 1.0000
71.7200 163.0000 1.0000
71.7300 156.0000 1.0000
71.7400 156.0000 1.0000
71.7500 165.0000 1.0000
71.7600 164.0000 1.0000
71.7700 166.0000 1.0000
71.7800 160.0000 1.0000
71.7900 165.0000 1.0000
71.8000 164.0000 1.0000
71.8100 152.0000 1.0000
71.8200 177.0000 1.0000
71.8300 191.0000 1.0000
71.8400 175.0000 1.0000
71.8500 144.0000 1.0000
71.8600 168.0000 1.0000
71.8700 193.0000 1.0000
71.8800 175.0000 1.0000
71.8900 172.0000 1.0000
71.9000 176.0000 1.0000
71.9100 170.0000 1.0000
71.9200 159.0000 1.0000
71.9300 157.0000 1.0000
71.9400 147.0000 1.0000
71.9500 162.0000 1.0000
71.9600 144.0000 1.0000
71.9700 157.0000 1.0000
71.9800 173.0000 1.0000
71.9900 172.0000 1.0000
72.0000 181.0000 1.0000
72.0100 176.0000 1.0000
72.0200 148.0000 1.0000
72.0300 191.0000 1.0000
72.0400 160.0000 1.0000
72.0500 179.0000 1.0000
72.0600 187.0000 1.0000
72.0700 132.0000 1.0000
72.0800 183.0000 1.0000
72.0900 167.0000 1.0000
72.1000 174.0000 1.0000
72.1100 159.0000 1.0000
72.1200 165.0000 1.0000
72.1300 163.0000 1.0000
72.1400 171.0000 1.0000
72.1500 163.0000 1.0000
72.1600 151.0000 1.0000
72.1700 154.0000 1.0000
72.1800 147.0000 1.0000
72.1900 186.0000 1.0000
72.2000 168.0000 1.0000
72.2100 177.0000 1.0000
72.2200 171.0000 1.0000
72.2300 172.0000 1.0000
72.2400 147.0000 1.0000
72.2500 154.0000 1.0000
72.2600 161.0000 1.0000
72.2700 162.0000 1.0000
72.2800 176.0000 1.0000
72.2900 197.0000 1.0000
72.3000 193.0000 1.0000
72.3100 160.0000 1.0000
72.3200 192.0000 1.0000
72.3300 166.0000 1.0000
72.3400 185.0000 1.0000
72.3500 176.0000 1.0000
72.3600 161.0000 1.0000
72.3700 164.0000 1.0000
72.3800 161.0000 1.0000
72.3900 164.0000 1.0000
72.4000 161.0000 1.0000
72.4100 168.0000 1.0000
72.4200 177.0000 1.0000
72.4300 179.0000 1.0000
72.4400 173.0000 1.0000
72.4500 140.0000 1.0000
72.4600 171.0000 1.0000
72.4700 161.0000 1.0000
72.4800 199.0000 1.0000
72.4900 184.0000 1.0000
72.5000 149.0000 1.0000
72.5100 189.0000 1.0000
72.5200 163.0000 1.0000
72.5300 181.0000 1.0000
72.5400 171.0000 1.0000
72.5500 169.0000 1.0000
72.5600 155.0000 1.0000
72.5700 164.0000 1.0000
72.5800 170.0000 1.0000
72.5900 161.0000 1.0000
72.6000 191.0000 1.0000
72.6100 161.0000 1.0000
72.6200 152.0000 1.0000
72.6300 163.0000 1.0000
72.6400 175.0000 1.0000
72.6500 168.0000 1.0000
72.6600 156.0000 1.0000
72.6700 178.0000 1.0000
72.6800 159.0000 1.0000
72.6900 166.0000 1.0000
72.7000 179.0000 1.0000
72.7100 176.0000 1.0000
72.7200 152.0000 1.0000
72.7300 185.0000 1.0000
72.7400 163.0000 1.0000
72.7500 159.0000 1.0000
72.7600 142.0000 1.0000
72.7700 177.0000 1.0000
72.7800 157.0000 1.0000
72.7900 146.0000 1.0000
72.8000 170.0000 1.0000
72.8100 175.0000 1.0000
72.8200 186.0000 1.0000
72.8300 157.0000 1.0000
72.8400 164.0000 1.0000
72.8500 167.0000 1.0000
72.8600 151.0000 1.0000
72.8700 153.0000 1.0000
72.8800 166.0000 1.0000
72.8900 169.0000 1.0000
72.9000 186.0000 1.0000
72.9100 138.0000 1.0000
72.9200 167.0000 1.0000
72.9300 168.0000 1.0000
72.9400 154.0000 1.0000
72.9500 186.0000 1.0000
72.9600 168.0000 1.0000
72.9700 183.0000 1.0000
72.9800 177.0000 1.0000
72.9900 194.0000 1.0000
73.0000 192.0000 1.0000
73.0100 153.0000 1.0000
73.0200 160.0000 1.0000
73.0300 190.0000 1.0000
73.0400 166.0000 1.0000
73.0500 182.0000 1.0000
73.0600 151.0000 1.0000
73.0700 168.0000 1.0000
73.0800 171.0000 1.0000
73.0900 169.0000 1.0000
73.1000 161.0000 1.0000
73.1100 180.0000 1.0000
73.1200 161.0000 1.0000
73.1300 183.0000 1.0000
73.1400 159.0000 1.0000
73.1500 155.0000 1.0000
73.1600 173.0000 1.0000
73.1700 180.0000 1.0000
73.1800 178.0000 1.0000
73.1900 172.0000 1.0000
73.2000 163.0000 1.0000
73.2100 152.0000 1.0000
73.2200 167.0000 1.0000
73.2300 153.0000 1.0000
73.2400 148.0000 1.0000
73.2500 170.0000 1.0000
73.2600 162.0000 1.0000
73.2700 161.0000 1.0000
73.2800 175.0000 1.0000
73.2900 155.0000 1.0000
73.3000 155.0000 1.0000
73.3100 170.0000 1.0000
73.3200 172.0000 1.0000
73.3300 166.0000 1.0000
73.3400 173.0000 1.0000
73.3500 147.0000 1.0000
73.3600 184.0000 1.0000
73.3700 172.0000 1.0000
73.3800 164.0000 1.0000
73.3900 166.0000 1.0000
73.4000 145.0000 1.0000
73.4100 153.0000 1.0000
73.4200 175.0000 1.0000
73.4300 167.0000 1.0000
73.4400 164.0000 1.0000
73.4500 182.0000 1.0000
73.4600 165.0000 1.0000
73.4700 176.0000 1.0000
73.4800 153.0000 1.0000
73.4900 167.0000 1.0000
73.5000 175.0000 1.0000
73.5100 194.0000 1.0000
73.5200 175.0000 1.0000
73.5300 168.0000 1.0000
73.5400 189.0000 1.0000
73.5500 167.0000 1.0000
73.5600 172.0000 1.0000
73.5700 156.0000 1.0000
73.5800 166.0000 1.0000
73.5900 157.0000 1.0000
73.6000 200.0000 1.0000
73.6100 153.0000 1.0000
73.6200 148.0000 1.0000
73.6300 170.0000 1.0000
73.6400 174.0000 1.0000
73.6500 178.0000 1.0000
73.6600 189.0000 1.0000
73.6700 178.0000 1.0000
73.6800 178.0000 1.0000
73.6900 171.0000 1.0000
73.7000 181.0000 1.0000
73.7100 163.0000 1.0000
73.7200 172.0000 1.0000
73.7300 173.0000 1.0000
73.7400 198.0000 1.0000
73.7500 161.0000 1.0000
73.7600 177.0000 1.0000
73.7700 167.0000 1.0000
73.7800 181.0000 1.0000
73.7900 157.0000 1.0000
73.8000 160.0000 1.0000
73.8100 166.0000 1.0000
73.8200 166.0000 1.0000
73.8300 166.0000 1.0000
73.8400 173.0000 1.0000
73.8500 164.0000 1.0000
73.8600 171.0000 1.0000
73.8700 167.0000 1.0000
73.8800 154.0000 1.0000
73.8900 159.0000 1.0000
73.9000 168.0000 1.0000
73.9100 163.0000 1.0000
73.9200 166.0000 1.0000
73.9300 174.0000 1.0000
73.9400 163.0000 1.0000
73.9500 178.0000 1.0000
73.9600 173.0000 1.0000
73.9700 160.0000 1.0000
73.9800 167.0000 1.0000
73.9900 175.0000 1.0000
74.0000 157.0000 1.0000
74.0100 165.0000 1.0000
74.0200 175.0000 1.0000
74.0300 163.0000 1.0000
74.0400 148.0000 1.0000
74.0500 192.0000 1.0000
74.0600 182.0000 1.0000
74.0700 168.0000 1.0000
74.0800 166.0000 1.0000
74.0900 171.0000 1.0000
74.1000 209.0000 1.0000
74.1100 171.0000 1.0000
74.1200 175.0000 1.0000
74.1300 189.0000 1.0000
74.1400 159.0000 1.0000
74.1500 178.0000 1.0000
74.1600 174.0000 1.0000
74.1700 158.0000 1.0000
74.1800 159.0000 1.0000
74.1900 167.0000 1.0000
74.2000 177.0000 1.0000
74.2100 185.0000 1.0000
74.2200 159.0000 1.0000
74.2300 164.0000 1.0000
74.2400 172.0000 1.0000
74.2500 155.0000 1.0000
74.2600 162.0000 1.0000
74.2700 174.0000 1.0000
74.2800 186.0000 1.0000
74.2900 195.0000 1.0000
74.3000 164.0000 1.0000
74.3100 164.0000 1.0000
74.3200 177.0000 1.0000
74.3300 176.0000 1.0000
74.3400 207.0000 1.0000
74.3500 180.0000 1.0000
74.3600 136.0000 1.0000
74.3700 177.0000 1.0000
74.3800 170.0000 1.0000
74.3900 176.0000 1.0000
74.4000 176.0000 1.0000
74.4100 185.0000 1.0000
74.4200 181.0000 1.0000
74.4300 172.0000 1.0000
74.4400 177.0000 1.0000
74.4500 168.0000 1.0000
74.4600 192.0000 1.0000
74.4700 192.0000 1.0000
74.4800 178.0000 1.0000
74.4900 171.0000 1.0000
74.5000 178.0000 1.0000
74.5100 148.0000 1.0000
74.5200 175.0000 1.0000
74.5300 154.0000 1.0000
74.5400 161.0000 1.0000
74.5500 167.0000 1.0000
74.5600 158.0000 1.0000
74.5700 176.0000 1.0000
74.5800 170.0000 1.0000
74.5900 153.0000 1.0000
74.6000 176.0000 1.0000
74.6100 166.0000 1.0000
74.6200 180.0000 1.0000
74.6300 158.0000 1.0000
74.6400 165.0000 1.0000
74.6500 175.0000 1.0000
74.6600 180.0000 1.0000
74.6700 161.0000 1.0000
74.6800 173.0000 1.0000
74.6900 179.0000 1.0000
74.7000 173.0000 1.0000
74.7100 186.0000 1.0000
74.7200 146.0000 1.0000
74.7300 172.0000 1.0000
74.7400 167.0000 1.0000
74.7500 179.0000 1.0000
74.7600 171.0000 1.0000
74.7700 176.0000 1.0000
74.7800 166.0000 1.0000
74.7900 178.0000 1.0000
74.8000 181.0000 1.0000
74.8100 193.0000 1.0000
74.8200 157.0000 1.0000
74.8300 160.0000 1.0000
74.8400 150.0000 1.0000
74.8500 170.0000 1.0000
74.8600 186.0000 1.0000
74.8700 170.0000 1.0000
74.8800 170.0000 1.0000
74.8900 190.0000 1.0000
74.9000 151.0000 1.0000
74.9100 177.0000 1.0000
74.9200 161.0000 1.0000
74.9300 177.0000 1.0000
74.9400 176.0000 1.0000
74.9500 155.0000 1.0000
74.9600 174.0000 1.0000
74.9700 171.0000 1.0000
74.9800 189.0000 1.0000
74.9900 163.0000 1.0000
75.0000 201.0000 1.0000
75.0100 165.0000 1.0000
75.0200 171.0000 1.0000
75.0300 196.0000 1.0000
75.0400 174.0000 1.0000
75.0500 178.0000 1.0000
75.0600 164.0000 1.0000
75.0700 175.0000 1.0000
75.0800 159.0000 1.0000
75.0900 161.0000 1.0000
75.1000 173.0000 1.0000
75.1100 162.0000 1.0000
75.1200 171.0000 1.0000
75.1300 175.0000 1.0000
75.1400 136.0000 1.0000
75.1500 171.0000 1.0000
75.1600 169.0000 1.0000
75.1700 193.0000 1.0000
75.1800 181.0000 1.0000
75.1900 178.0000 1.0000
75.2000 151.0000 1.0000
75.2100 165.0000 1.0000
75.2200 171.0000 1.0000
75.2300 156.0000 1.0000
75.2400 185.0000 1.0000
75.2500 166.0000 1.0000
75.2600 179.0000 1.0000
75.2700 184.0000 1.0000
75.2800 172.0000 1.0000
75.2900 175.0000 1.0000
75.3000 157.0000 1.0000
75.3100 149.0000 1.0000
75.3200 171.0000 1.0000
75.3300 179.0000 1.0000
75.3400 136.0000 1.0000
75.3500 210.0000 1.0000
75.3600 167.0000 1.0000
75.3700 177.0000 1.0000
75.3800 149.0000 1.0000
75.3900 198.0000 1.0000
75.4000 152.0000 1.0000
75.4100 157.0000 1.0000
75.4200 185.0000 1.0000
75.4300 181.0000 1.0000
75.4400 174.0000 1.0000
75.4500 153.0000 1.0000
75.4600 176.0000 1.0000
75.4700 179.0000 1.0000
75.4800 173.0000 1.0000
75.4900 167.0000 1.0000
75.5000 164.0000 1.0000
75.5100 171.0000 1.0000
75.5200 175.0000 1.0000
75.5300 174.0000 1.0000
75.5400 162.0000 1.0000
75.5500 154.0000 1.0000
75.5600 190.0000 1.0000
75.5700 168.0000 1.0000
75.5800 157.0000 1.0000
75.5900 186.0000 1.0000
75.6000 170.0000 1.0000
75.6100 172.0000 1.0000
75.6200 189.0000 1.0000
75.6300 153.0000 1.0000
75.6400 174.0000 1.0000
75.6500 168.0000 1.0000
75.6600 189.0000 1.0000
75.6700 174.0000 1.0000
75.6800 188.0000 1.0000
75.6900 158.0000 1.0000
75.7000 180.0000 1.0000
75.7100 164.0000 1.0000
75.7200 166.0000 1.0000
75.7300 166.0000 1.0000
75.7400 172.0000 1.0000
75.7500 185.0000 1.0000
75.7600 172.0000 1.0000
75.7700 171.0000 1.0000
75.7800 156.0000 1.0000
75.7900 165.0000 1.0000
75.8000 171.0000 1.0000
75.8100 188.0000 1.0000
75.8200 148.0000 1.0000
75.8300 182.0000 1.0000
75.8400 184.0000 1.0000
75.8500 185.0000 1.0000
75.8600 180.0000 1.0000
75.8700 193.0000 1.0000
75.8800 168.0000 1.0000
75.8900 170.0000 1.0000
75.9000 177.0000 1.0000
75.9100 175.0000 1.0000
75.9200 191.0000 1.0000
75.9300 173.0000 1.0000
75.9400 210.0000 1.0000
75.9500 185.0000 1.0000
75.9600 168.0000 1.0000
75.9700 168.0000 1.0000
75.9800 180.0000 1.0000
75.9900 176.0000 1.0000
76.0000 164.0000 1.0000
76.0100 165.0000 1.0000
76.0200 188.0000 1.0000
76.0300 170.0000 1.0000
76.0400 188.0000 1.0000
76.0500 181.0000 1.0000
76.0600 173.0000 1.0000
76.0700 145.0000 1.0000
76.0800 191.0000 1.0000
76.0900 164.0000 1.0000
76.1000 174.0000 1.0000
76.1100 181.0000 1.0000
76.1200 168.0000 1.0000
76.1300 174.0000 1.0000
76.1400 162.0000 1.0000
76.1500 168.0000 1.0000
76.1600 156.0000 1.0000
76.1700 151.0000 1.0000
76.1800 157.0000 1.0000
76.1900 170.0000 1.0000
76.2000 178.0000 1.0000
76.2100 155.0000 1.0000
76.2200 167.0000 1.0000
76.2300 165.0000 1.0000
76.2400 171.0000 1.0000
76.2500 161.0000 1.0000
76.2600 172.0000 1.0000
76.2700 180.0000 1.0000
76.2800 155.0000 1.0000
76.2900 182.0000 1.0000
76.3000 161.0000 1.0000
76.3100 159.0000 1.0000
76.3200 181.0000 1.0000
76.3300 179.0000 1.0000
76.3400 154.0000 1.0000
76.3500 185.0000 1.0000
76.3600 177.0000 1.0000
76.3700 171.0000 1.0000
76.3800 170.0000 1.0000
76.3900 178.0000 1.0000
76.4000 162.0000 1.0000
76.4100 200.0000 1.0000
76.4200 167.0000 1.0000
76.4300 164.0000 1.0000
76.4400 183.0000 1.0000
76.4500 157.0000 1.0000
76.4600 172.0000 1.0000
76.4700 178.0000 1.0000
76.4800 183.0000 1.0000
76.4900 178.0000 1.0000
76.5000 163.0000 1.0000
76.5100 146.0000 1.0000
76.5200 174.0000 1.0000
76.5300 185.0000 1.0000
76.5400 145.0000 1.0000
76.5500 161.0000 1.0000
76.5600 150.0000 1.0000
76.5700 183.0000 1.0000
76.5800 177.0000 1.0000
76.5900 167.0000 1.0000
76.6000 193.0000 1.0000
76.6100 163.0000 1.0000
76.6200 198.0000 1.0000
76.6300 157.0000 1.0000
76.6400 174.0000 1.0000
76.6500 191.0000 1.0000
76.6600 169.0000 1.0000
76.6700 165.0000 1.0000
76.6800 152.0000 1.0000
76.6900 187.0000 1.0000
76.7000 184.0000 1.0000
76.7100 168.0000 1.0000
76.7200 148.0000 1.0000
76.7300 175.0000 1.0000
76.7400 190.0000 1.0000
76.7500 173.0000 1.0000
76.7600 170.0000 1.0000
76.7700 160.0000 1.0000
76.7800 172.0000 1.0000
76.7900 186.0000 1.0000
76.8000 194.0000 1.0000
76.8100 146.0000 1.0000
76.8200 167.0000 1.0000
76.8300 203.0000 1.0000
76.8400 173.0000 1.0000
76.8500 169.0000 1.0000
76.8600 176.0000 1.0000
76.8700 164.0000 1.0000
76.8800 183.0000 1.0000
76.8900 170.0000 1.0000
76.9000 176.0000 1.0000
76.9100 181.0000 1.0000
76.9200 157.0000 1.0000
76.9300 172.0000 1.0000
76.9400 167.0000 1.0000
76.9500 176.0000 1.0000
76.9600 184.0000 1.0000
76.9700 172.0000 1.0000
76.9800 165.0000 1.0000
76.9900 193.0000 1.0000
77.0000 165.0000 1.0000
77.0100 157.0000 1.0000
77.0200 185.0000 1.0000
77.0300 168.0000 1.0000
77.0400 168.0000 1.0000
77.0500 168.0000 1.0000
77.0600 192.0000 1.0000
77.0700 188.0000 1.0000
77.0800 162.0000 1.0000
77.0900 219.0000 1.0000
77.1000 168.0000 1.0000
77.1100 173.0000 1.0000
77.1200 167.0000 1.0000
77.1300 161.0000 1.0000
77.1400 165.0000 1.0000
77.1500 153.0000 1.0000
77.1600 170.0000 1.0000
77.1700 179.0000 1.0000
77.1800 172.0000 1.0000
77.1900 182.0000 1.0000
77.2000 163.0000 1.0000
77.2100 184.0000 1.0000
77.2200 160.0000 1.0000
77.2300 185.0000 1.0000
77.2400 183.0000 1.0000
77.2500 186.0000 1.0000
77.2600 185.0000 1.0000
77.2700 173.0000 1.0000
77.2800 175.0000 1.0000
77.2900 148.0000 1.0000
77.3000 172.0000 1.0000
77.3100 190.0000 1.0000
77.3200 186.0000 1.0000
77.3300 171.0000 1.0000
77.3400 176.0000 1.0000
77.3500 178.0000 1.0000
77.3600 183.0000 1.0000
77.3700 185.0000 1.0000
77.3800 150.0000 1.0000
77.3900 167.0000 1.0000
77.4000 161.0000 1.0000
77.4100 166.0000 1.0000
77.4200 175.0000 1.0000
77.4300 179.0000 1.0000
77.4400 170.0000 1.0000
77.4500 181.0000 1.0000
77.4600 186.0000 1.0000
77.4700 180.0000 1.0000
77.4800 190.0000 1.0000
77.4900 186.0000 1.0000
77.5000 161.0000 1.0000
77.5100 186.0000 1.0000
77.5200 165.0000 1.0000
77.5300 144.0000 1.0000
77.5400 193.0000 1.0000
77.5500 176.0000 1.0000
77.5600 182.0000 1.0000
77.5700 197.0000 1.0000
77.5800 169.0000 1.0000
77.5900 161.0000 1.0000
77.6000 171.0000 1.0000
77.6100 170.0000 1.0000
77.6200 190.0000 1.0000
77.6300 179.0000 1.0000
77.6400 177.0000 1.0000
77.6500 173.0000 1.0000
77.6600 179.0000 1.0000
77.6700 198.0000 1.0000
77.6800 193.0000 1.0000
77.6900 168.0000 1.0000
77.7000 152.0000 1.0000
77.7100 169.0000 1.0000
77.7200 148.0000 1.0000
77.7300 197.0000 1.0000
77.7400 167.0000 1.0000
77.7500 198.0000 1.0000
77.7600 180.0000 1.0000
77.7700 190.0000 1.0000
77.7800 187.0000 1.0000
77.7900 178.0000 1.0000
77.8000 171.0000 1.0000
77.8100 154.0000 1.0000
77.8200 170.0000 1.0000
77.8300 194.0000 1.0000
77.8400 166.0000 1.0000
77.8500 149.0000 1.0000
77.8600 194.0000 1.0000
77.8700 196.0000 1.0000
77.8800 159.0000 1.0000
77.8900 167.0000 1.0000
77.9000 164.0000 1.0000
77.9100 164.0000 1.0000
77.9200 184.0000 1.0000
77.9300 168.0000 1.0000
77.9400 192.0000 1.0000
77.9500 169.0000 1.0000
77.9600 179.0000 1.0000
77.9700 172.0000 1.0000
77.9800 175.0000 1.0000
77.9900 179.0000 1.0000
78.0000 196.0000 1.0000
78.0100 165.0000 1.0000
78.0200 171.0000 1.0000
78.0300 185.0000 1.0000
78.0400 180.0000 1.0000
78.0500 193.0000 1.0000
78.0600 153.0000 1.0000
78.0700 178.0000 1.0000
78.0800 162.0000 1.0000
78.0900 186.0000 1.0000
78.1000 190.0000 1.0000
78.1100 172.0000 1.0000
78.1200 154.0000 1.0000
78.1300 187.0000 1.0000
78.1400 175.0000 1.0000
78.1500 168.0000 1.0000
78.1600 172.0000 1.0000
78.1700 180.0000 1.0000
78.1800 183.0000 1.0000
78.1900 198.0000 1.0000
78.2000 177.0000 1.0000
78.2100 173.0000 1.0000
78.2200 193.0000 1.0000
78.2300 170.0000 1.0000
78.2400 143.0000 1.0000
78.2500 175.0000 1.0000
78.2600 188.0000 1.0000
78.2700 147.0000 1.0000
78.2800 165.0000 1.0000
78.2900 171.0000 1.0000
78.3000 151.0000 1.0000
78.3100 184.0000 1.0000
78.3200 170.0000 1.0000
78.3300 190.0000 1.0000
78.3400 184.0000 1.0000
78.3500 174.0000 1.0000
78.3600 180.0000 1.0000
78.3700 165.0000 1.0000
78.3800 183.0000 1.0000
78.3900 173.0000 1.0000
78.4000 180.0000 1.0000
78.4100 175.0000 1.0000
78.4200 185.0000 1.0000
78.4300 167.0000 1.0000
78.4400 189.0000 1.0000
78.4500 194.0000 1.0000
78.4600 156.0000 1.0000
78.4700 180.0000 1.0000
78.4800 175.0000 1.0000
78.4900 179.0000 1.0000
78.5000 169.0000 1.0000
78.5100 170.0000 1.0000
78.5200 194.0000 1.0000
78.5300 174.0000 1.0000
78.5400 186.0000 1.0000
78.5500 170.0000 1.0000
78.5600 147.0000 1.0000
78.5700 171.0000 1.0000
78.5800 182.0000 1.0000
78.5900 190.0000 1.0000
78.6000 178.0000 1.0000
78.6100 177.0000 1.0000
78.6200 183.0000 1.0000
78.6300 197.0000 1.0000
78.6400 158.0000 1.0000
78.6500 160.0000 1.0000
78.6600 198.0000 1.0000
78.6700 185.0000 1.0000
78.6800 172.0000 1.0000
78.6900 178.0000 1.0000
78.7000 187.0000 1.0000
78.7100 184.0000 1.0000
78.7200 206.0000 1.0000
78.7300 165.0000 1.0000
78.7400 189.0000 1.0000
78.7500 174.0000 1.0000
78.7600 174.0000 1.0000
78.7700 173.0000 1.0000
78.7800 175.0000 1.0000
78.7900 170.0000 1.0000
78.8000 173.0000 1.0000
78.8100 151.0000 1.0000
78.8200 185.0000 1.0000
78.8300 167.0000 1.0000
78.8400 167.0000 1.0000
78.8500 191.0000 1.0000
78.8600 174.0000 1.0000
78.8700 195.0000 1.0000
78.8800 177.0000 1.0000
78.8900 179.0000 1.0000
78.9000 166.0000 1.0000
78.9100 172.0000 1.0000
78.9200 193.0000 1.0000
78.9300 186.0000 1.0000
78.9400 191.0000 1.0000
78.9500 189.0000 1.0000
78.9600 157.0000 1.0000
78.9700 173.0000 1.0000
78.9800 171.0000 1.0000
78.9900 178.0000 1.0000
79.0000 185.0000 1.0000
79.0100 187.0000 1.0000
79.0200 159.0000 1.0000
79.0300 173.0000 1.0000
79.0400 199.0000 1.0000
79.0500 179.0000 1.0000
79.0600 159.0000 1.0000
79.0700 184.0000 1.0000
79.0800 167.0000 1.0000
79.0900 176.0000 1.0000
79.1000 161.0000 1.0000
79.1100 178.0000 1.0000
79.1200 159.0000 1.0000
79.1300 187.0000 1.0000
79.1400 180.0000 1.0000
79.1500 164.0000 1.0000
79.1600 182.0000 1.0000
79.1700 187.0000 1.0000
79.1800 183.0000 1.0000
79.1900 162.0000 1.0000
79.2000 180.0000 1.0000
79.2100 171.0000 1.0000
79.2200 184.0000 1.0000
79.2300 188.0000 1.0000
79.2400 167.0000 1.0000
79.2500 145.0000 1.0000
79.2600 149.0000 1.0000
79.2700 178.0000 1.0000
79.2800 192.0000 1.0000
79.2900 170.0000 1.0000
79.3000 175.0000 1.0000
79.3100 209.0000 1.0000
79.3200 167.0000 1.0000
79.3300 172.0000 1.0000
79.3400 200.0000 1.0000
79.3500 157.0000 1.0000
79.3600 171.0000 1.0000
79.3700 161.0000 1.0000
79.3800 194.0000 1.0000
79.3900 171.0000 1.0000
79.4000 170.0000 1.0000
79.4100 184.0000 1.0000
79.4200 176.0000 1.0000
79.4300 157.0000 1.0000
79.4400 171.0000 1.0000
79.4500 164.0000 1.0000
79.4600 161.0000 1.0000
79.4700 186.0000 1.0000
79.4800 182.0000 1.0000
79.4900 196.0000 1.0000
79.5000 163.0000 1.0000
79.5100 161.0000 1.0000
79.5200 181.0000 1.0000
79.5300 167.0000 1.0000
79.5400 158.0000 1.0000
79.5500 177.0000 1.0000
79.5600 175.0000 1.0000
79.5700 160.0000 1.0000
79.5800 161.0000 1.0000
79.5900 188.0000 1.0000
79.6000 179.0000 1.0000
79.6100 167.0000 1.0000
79.6200 187.0000 1.0000
79.6300 220.0000 1.0000
79.6400 187.0000 1.0000
79.6500 177.0000 1.0000
79.6600 190.0000 1.0000
79.6700 221.0000 1.0000
79.6800 174.0000 1.0000
79.6900 179.0000 1.0000
79.7000 185.0000 1.0000
79.7100 172.0000 1.0000
79.7200 180.0000 1.0000
79.7300 173.0000 1.0000
79.7400 173.0000 1.0000
79.7500 193.0000 1.0000
79.7600 188.0000 1.0000
79.7700 159.0000 1.0000
79.7800 198.0000 1.0000
79.7900 187.0000 1.0000
79.8000 152.0000 1.0000
79.8100 174.0000 1.0000
79.8200 185.0000 1.0000
79.8300 181.0000 1.0000
79.8400 185.0000 1.0000
79.8500 191.0000 1.0000
79.8600 174.0000 1.0000
79.8700 174.0000 1.0000
79.8800 211.0000 1.0000
79.8900 176.0000 1.0000
79.9000 174.0000 1.0000
79.9100 201.0000 1.0000
79.9200 197.0000 1.0000
79.9300 192.0000 1.0000
79.9400 185.0000 1.0000
79.9500 182.0000 1.0000
79.9600 188.0000 1.0000
79.9700 188.0000 1.0000
79.9800 165.0000 1.0000
79.9900 173.0000 1.0000
80.0000 162.0000 1.0000
*RAS_INT_END
*RAS_DATA_END
